time (s)	coil I (A)	last det (V)	int current (uC)
67450.477915	0.344525	130.273437	269.531250
67450.479916	0.640140	130.273437	269.531250
67450.481916	0.925876	130.273437	269.531250
67450.483916	1.052714	130.273437	269.531250
67450.487916	1.047111	11.518223	0.660247
67451.497933	0.362152	185.449219	-125.195312
67451.499934	0.657266	185.449219	-125.195312
67451.501936	0.940636	185.449219	-125.195312
67451.503938	1.052913	185.449219	-125.195312
67451.505944	1.049441	11.543852	0.776828
67452.567979	0.507482	127.636719	267.773437
67452.569982	0.798892	127.636719	267.773437
67452.571981	1.029337	127.636719	267.773437
67452.573983	1.050760	127.636719	267.773437
67452.575982	1.047660	11.524258	0.535715
67453.582003	0.240213	221.386719	-121.386719
67453.584006	0.540694	221.386719	-121.386719
67453.586003	0.831597	221.386719	-121.386719
67453.588004	1.040412	221.386719	-121.386719
67453.590002	1.050501	221.386719	-121.386719
67453.592005	1.047487	11.522361	0.806878
67454.660036	0.360142	125.683594	262.792969
67454.662039	0.655431	125.683594	262.792969
67454.664040	0.939275	125.683594	262.792969
67454.666040	1.053905	125.683594	262.792969
67454.668040	1.050678	11.557455	0.509683
67455.682124	0.682798	161.816406	-130.273437
67455.684123	0.961475	161.816406	-130.273437
67455.686125	1.053180	161.816406	-130.273437
67455.688125	1.049455	11.544003	0.736840
67456.740142	0.861231	127.636719	273.730469
67456.742144	1.047016	127.636719	273.730469
67456.746142	1.047046	127.636719	273.730469
67456.750142	1.043703	11.480735	0.797795
67457.772160	0.232254	177.343750	-129.980469
67457.774163	0.533363	177.343750	-129.980469
67457.776162	0.824411	177.343750	-129.980469
67457.778161	1.037952	177.343750	-129.980469
67457.784160	1.045169	177.343750	-129.980469
67457.786162	1.043654	11.480194	0.647369
67458.826670	1.034673	125.488281	275.878906
67458.830672	1.047394	125.488281	275.878906
67458.832673	1.045457	11.500029	0.592428
67459.857187	0.255896	187.304687	-130.957031
67459.859189	0.554999	187.304687	-130.957031
67459.861190	0.845682	187.304687	-130.957031
67459.863188	1.043934	187.304687	-130.957031
67459.865189	1.050182	187.304687	-130.957031
67459.867189	1.047206	11.519268	0.758283
67460.921226	0.728922	120.410156	268.261719
67460.923230	0.993494	120.410156	268.261719
67460.925229	1.051923	120.410156	268.261719
67460.927229	1.051774	11.569517	0.549055
67461.953246	0.703331	192.773437	-131.054687
67461.955249	0.976340	192.773437	-131.054687
67461.957247	1.051993	192.773437	-131.054687
67461.959248	1.048238	11.530621	0.744414
67462.989797	0.741474	123.828125	278.906250
67462.991798	1.001189	123.828125	278.906250
67462.993799	1.051566	123.828125	278.906250
67462.995799	1.047945	11.527395	0.629279
67464.048323	0.399281	169.726562	-135.742187
67464.050324	0.693306	169.726562	-135.742187
67464.052326	0.969434	169.726562	-135.742187
67464.054325	1.052949	169.726562	-135.742187
67464.056326	1.049317	11.542487	0.650427
67465.076361	0.390084	119.726562	272.167969
67465.078363	0.684309	119.726562	272.167969
67465.080362	0.962373	119.726562	272.167969
67465.082363	1.052168	119.726562	272.167969
67465.084362	1.048431	11.532739	0.568561
67466.144408	0.839798	170.800781	-136.816406
67466.146410	1.042218	170.800781	-136.816406
67466.148409	1.049814	170.800781	-136.816406
67466.150407	1.046911	11.516024	0.725275
67467.166400	0.549767	118.359375	267.382812
67467.168402	0.840536	118.359375	267.382812
67467.170405	1.042325	118.359375	267.382812
67467.172403	1.049865	118.359375	267.382812
67467.174404	1.046968	11.516653	0.616287
67468.232453	0.709577	181.640625	-135.351562
67468.234455	0.980739	181.640625	-135.351562
67468.238453	1.047786	181.640625	-135.351562
67468.240454	1.045584	11.501420	0.676345
67469.252494	0.729798	118.847656	261.230469
67469.254494	0.994058	118.847656	261.230469
67469.256496	1.051685	118.847656	261.230469
67469.258495	1.048077	11.528849	0.664652
67470.324500	0.561366	196.386719	-131.152344
67470.326502	0.851705	196.386719	-131.152344
67470.328501	1.045053	196.386719	-131.152344
67470.330503	1.049981	196.386719	-131.152344
67470.332503	1.047118	11.518301	0.752749
67471.333433	0.754574	122.851562	264.746094
67471.335435	1.008436	122.851562	264.746094
67471.337435	1.050930	122.851562	264.746094
67471.341434	1.045424	11.499664	0.630156
67472.417441	1.638605	168.164062	-133.203125
67472.419441	0.832317	168.164062	-133.203125
67472.421442	1.040300	168.164062	-133.203125
67472.423442	1.050138	168.164062	-133.203125
67472.425442	1.047154	11.518692	0.672240
67473.423454	0.307030	121.679687	250.488281
67473.425455	0.603907	121.679687	250.488281
67473.427454	0.892482	121.679687	250.488281
67473.429456	1.051162	121.679687	250.488281
67473.431455	1.050010	11.550108	0.670423
67474.503466	0.714375	158.593750	-131.640625
67474.505467	0.984111	158.593750	-131.640625
67474.507467	1.052111	158.593750	-131.640625
67474.509467	1.048299	11.531294	0.609333
67475.513495	0.468203	124.707031	247.656250
67475.515496	0.760252	124.707031	247.656250
67475.517496	1.011534	124.707031	247.656250
67475.519498	1.051027	124.707031	247.656250
67475.521496	1.047575	11.523326	0.679152
67476.586036	0.377613	179.003906	-126.953125
67476.588036	0.672261	179.003906	-126.953125
67476.590036	0.953021	179.003906	-126.953125
67476.592038	1.053059	179.003906	-126.953125
67476.594038	1.049365	11.543011	0.526685
67477.602998	0.546818	126.269531	243.164062
67477.604999	0.837691	126.269531	243.164062
67477.606999	1.041782	126.269531	243.164062
67477.609002	1.043345	126.269531	243.164062
67477.611001	1.047142	11.518559	0.765907
67478.679003	0.952516	164.062500	-126.953125
67478.681004	1.052518	164.062500	-126.953125
67478.683004	1.048841	11.537250	0.606071
67479.695518	0.469310	127.734375	235.449219
67479.697518	0.761379	127.734375	235.449219
67479.699518	1.011952	127.734375	235.449219
67479.701517	1.050520	127.734375	235.449219
67479.703517	1.047195	11.519143	0.703747
67480.759511	0.921846	164.355469	-125.097656
67480.761517	1.052060	164.355469	-125.097656
67480.763519	1.049062	11.539679	0.575032
67481.790058	0.687233	129.101562	232.031250
67481.792060	0.964591	129.101562	232.031250
67481.794059	1.052038	129.101562	232.031250
67481.796060	1.048184	11.530027	0.651660
67482.844568	0.351779	124.902344	-128.125000
67482.846569	0.647159	124.902344	-128.125000
67482.848569	0.932085	124.902344	-128.125000
67482.850569	1.053299	124.902344	-128.125000
67482.852570	1.050116	11.551278	0.613327
67483.878579	0.623657	130.664062	230.664062
67483.880580	0.910913	130.664062	230.664062
67483.882582	0.925197	130.664062	230.664062
67483.884581	1.050123	11.551358	1.019418
67484.931534	0.664762	116.113281	-129.101562
67484.933536	0.946874	116.113281	-129.101562
67484.935537	1.053233	116.113281	-129.101562
67484.937535	1.049723	11.546953	0.570983
67485.971547	0.607079	127.539062	223.339844
67485.973549	0.895343	127.539062	223.339844
67485.975556	1.051390	127.539062	223.339844
67485.977558	1.049915	11.549063	0.924472
67487.013598	0.247504	153.808594	-124.707031
67487.015602	0.547137	153.808594	-124.707031
67487.017601	0.837845	153.808594	-124.707031
67487.019601	1.041700	153.808594	-124.707031
67487.021601	1.049974	153.808594	-124.707031
67487.023602	1.047059	11.517646	0.609295
67488.059595	0.475985	129.882812	224.023437
67488.061598	0.767848	129.882812	224.023437
67488.063599	1.015082	129.882812	224.023437
67488.065597	1.050303	129.882812	224.023437
67488.067599	1.046988	11.516867	0.677889
67489.099599	0.420234	119.238281	-128.222656
67489.101601	0.713465	119.238281	-128.222656
67489.103602	0.983319	119.238281	-128.222656
67489.105601	1.051365	119.238281	-128.222656
67489.107603	1.047607	11.523682	0.624260
67490.147600	0.333319	128.417969	220.703125
67490.149601	0.629255	128.417969	220.703125
67490.151601	0.915988	128.417969	220.703125
67490.153602	1.052730	128.417969	220.703125
67490.155602	1.050053	11.550587	0.662362
67491.189662	0.582166	139.648437	-126.855469
67491.191676	0.871574	139.648437	-126.855469
67491.193677	1.050363	139.648437	-126.855469
67491.195678	1.051824	139.648437	-126.855469
67491.197679	1.048975	11.538731	0.796725
67492.232600	0.353510	131.347656	224.902344
67492.234602	0.648759	131.347656	224.902344
67492.236602	0.933276	131.347656	224.902344
67492.238603	1.052650	131.347656	224.902344
67492.240602	1.052640	11.579036	0.693873
67493.277146	0.363579	147.753906	-125.976562
67493.279147	0.658583	147.753906	-125.976562
67493.281146	0.941701	147.753906	-125.976562
67493.283147	1.052820	147.753906	-125.976562
67493.285147	1.049249	11.541735	0.615176
67494.323148	0.590105	130.761719	223.046875
67494.325159	0.879195	130.761719	223.046875
67494.327158	1.050201	130.761719	223.046875
67494.329158	1.050298	11.553282	0.660415
67495.365703	0.303119	119.433594	-129.687500
67495.367708	0.600157	119.433594	-129.687500
67495.369712	0.889659	119.433594	-129.687500
67495.371710	1.051635	119.433594	-129.687500
67495.373710	1.050826	11.559087	0.605324
67496.405740	0.250785	128.222656	219.433594
67496.407742	0.550214	128.222656	219.433594
67496.409743	0.840843	128.222656	219.433594
67496.411743	1.042656	128.222656	219.433594
67496.413742	1.050193	128.222656	219.433594
67496.415741	1.047180	11.518985	0.702535
67497.461735	0.744107	124.218750	-130.468750
67497.463738	1.002647	124.218750	-130.468750
67497.465738	1.051280	124.218750	-130.468750
67497.467737	1.047776	11.525534	0.586201
67498.492280	0.503065	129.199219	222.558594
67498.494281	0.794457	129.199219	222.558594
67498.496281	1.027209	129.199219	222.558594
67498.498282	1.050327	129.199219	222.558594
67498.500282	1.047138	11.518523	0.696006
67499.548327	0.396538	122.265625	-132.324219
67499.550327	0.690478	122.265625	-132.324219
67499.552327	0.967160	122.265625	-132.324219
67499.556325	1.049322	122.265625	-132.324219
67499.558326	1.046952	11.516476	0.589332
67500.580335	0.368650	126.953125	222.460937
67500.582335	0.663458	126.953125	222.460937
67500.584335	0.945883	126.953125	222.460937
67500.586334	1.053249	126.953125	222.460937
67500.588337	1.049665	11.546316	0.679325
67501.642360	0.540990	106.542969	-136.816406
67501.644362	0.831834	106.542969	-136.816406
67501.646363	1.040025	106.542969	-136.816406
67501.648363	1.049976	106.542969	-136.816406
67501.650360	1.046977	11.516751	0.671530
67502.666373	0.542935	127.148437	226.562500
67502.668375	0.833658	127.148437	226.562500
67502.670376	1.040799	127.148437	226.562500
67502.672375	1.050312	127.148437	226.562500
67502.674374	1.047361	11.520969	0.648528
67503.730404	0.406450	120.214844	-137.500000
67503.732405	0.700161	120.214844	-137.500000
67503.734404	0.974081	120.214844	-137.500000
67503.736403	1.051917	120.214844	-137.500000
67503.738404	1.048129	11.529424	0.569703
67504.750454	0.426554	124.316406	228.515625
67504.752455	0.719692	124.316406	228.515625
67504.754453	0.987611	124.316406	228.515625
67504.756454	1.051919	124.316406	228.515625
67504.758455	1.048154	11.529690	0.641804
67505.824966	0.627167	141.406250	-137.988281
67505.826965	0.914003	141.406250	-137.988281
67505.828966	1.051221	141.406250	-137.988281
67505.830965	1.048496	11.533456	0.567593
67506.836945	0.667056	120.507812	228.027344
67506.838946	0.948851	120.507812	228.027344
67506.840947	1.053226	120.507812	228.027344
67506.842948	1.049628	11.545908	0.641611
67507.914948	0.772762	127.343750	-143.261719
67507.916949	1.017667	127.343750	-143.261719
67507.918951	1.050765	127.343750	-143.261719
67507.920949	1.047502	11.522520	0.558692
67508.919495	0.320815	121.093750	235.449219
67508.921496	0.617074	121.093750	235.449219
67508.923497	0.904637	121.093750	235.449219
67508.925499	1.051893	121.093750	235.449219
67508.927497	1.052083	11.572912	0.632007
67509.999485	0.726439	134.667969	-145.507812
67510.001490	0.991738	134.667969	-145.507812
67510.003488	1.051265	134.667969	-145.507812
67510.005487	1.047600	11.523602	0.562906
67511.009454	0.469923	120.117187	240.234375
67511.011456	0.761897	120.117187	240.234375
67511.013455	1.012499	120.117187	240.234375
67511.017454	1.047853	120.117187	240.234375
67511.019458	1.045805	11.503856	0.623703
67512.085983	0.364538	100.390625	-153.808594
67512.087984	0.659425	100.390625	-153.808594
67512.089983	0.942350	100.390625	-153.808594
67512.091984	1.052754	100.390625	-153.808594
67512.093985	1.049259	11.541848	0.633999
67513.098029	0.414943	120.703125	240.136719
67513.100029	0.708291	120.703125	240.136719
67513.102029	0.979623	120.703125	240.136719
67513.104029	1.051536	120.703125	240.136719
67513.106030	1.047846	11.526304	0.632847
67514.170056	0.846780	113.769531	-153.808594
67514.172058	1.043494	113.769531	-153.808594
67514.174057	1.049394	113.769531	-153.808594
67514.176057	1.046558	11.512135	0.661990
67515.192073	0.559233	121.191406	244.726562
67515.194073	0.849639	121.191406	244.726562
67515.196077	1.044828	121.191406	244.726562
67515.198078	1.050206	121.191406	244.726562
67515.200079	1.047290	11.520189	0.743444
67516.256048	0.414676	102.929687	-156.347656
67516.258049	0.708101	102.929687	-156.347656
67516.260049	0.979546	102.929687	-156.347656
67516.262050	1.051454	102.929687	-156.347656
67516.264050	1.047698	11.524674	0.641760
67517.280530	0.487531	119.042969	239.941406
67517.282530	0.779188	119.042969	239.941406
67517.284532	1.020845	119.042969	239.941406
67517.286530	1.050836	119.042969	239.941406
67517.288529	1.047521	11.522734	0.579664
67518.340521	0.357890	99.511719	-156.250000
67518.342524	0.653011	99.511719	-156.250000
67518.344523	0.936981	99.511719	-156.250000
67518.346523	1.053125	99.511719	-156.250000
67518.348524	1.049738	11.547123	0.608169
67519.372519	0.327472	122.070312	242.382812
67519.374522	0.623529	122.070312	242.382812
67519.376520	0.910705	122.070312	242.382812
67519.378520	1.051635	122.070312	242.382812
67519.380522	1.049059	11.539651	0.592253
67520.425473	0.958469	100.781250	-156.347656
67520.427475	1.051849	100.781250	-156.347656
67520.429475	1.048061	11.528671	0.658688
67521.465468	0.311060	120.898437	236.621094
67521.467470	0.607766	120.898437	236.621094
67521.469469	0.895965	120.898437	236.621094
67521.471469	1.050994	120.898437	236.621094
67521.473469	1.049353	11.542886	0.551414
67522.507473	0.552573	58.691406	-160.449219
67522.509474	0.843143	58.691406	-160.449219
67522.511474	1.042522	58.691406	-160.449219
67522.513475	1.049286	58.691406	-160.449219
67522.515473	1.046472	11.511194	0.641256
67523.555501	0.472548	124.023437	237.792969
67523.557502	0.764436	124.023437	237.792969
67523.559502	1.013493	124.023437	237.792969
67523.561502	1.050774	124.023437	237.792969
67523.563502	1.047420	11.521616	0.547865
67524.592421	0.563448	60.839844	-159.667969
67524.594421	0.853683	60.839844	-159.667969
67524.596422	1.045321	60.839844	-159.667969
67524.598423	1.049662	60.839844	-159.667969
67524.600428	1.046778	11.514562	0.801147
67525.644482	0.475409	123.828125	233.496094
67525.646484	0.767298	123.828125	233.496094
67525.650481	1.018272	123.828125	233.496094
67525.652484	1.047348	123.828125	233.496094
67525.654483	1.045305	11.498352	0.564593
67526.682539	0.734595	65.527344	-157.910156
67526.684542	0.996997	65.527344	-157.910156
67526.686542	1.051466	65.527344	-157.910156
67526.688543	1.047822	11.526038	0.616263
67527.733101	0.426162	125.585937	233.007812
67527.735102	0.719204	125.585937	233.007812
67527.737103	0.987176	125.585937	233.007812
67527.739102	1.051574	125.585937	233.007812
67527.743101	1.047771	11.525480	0.556610
67528.768057	0.828552	44.335937	-160.839844
67528.770059	1.039178	44.335937	-160.839844
67528.772059	1.050090	44.335937	-160.839844
67528.774059	1.047168	11.518850	0.703674
67529.826089	0.415994	124.414062	228.222656
67529.828090	0.709328	124.414062	228.222656
67529.830091	0.980600	124.414062	228.222656
67529.832090	1.051967	124.414062	228.222656
67529.834091	1.048197	11.530169	0.537175
67530.855024	0.538822	63.281250	-158.300781
67530.857027	0.829592	63.281250	-158.300781
67530.859025	1.039121	63.281250	-158.300781
67530.861027	1.049540	63.281250	-158.300781
67530.863027	1.046609	11.512701	0.619863
67531.913552	0.793673	122.363281	223.339844
67531.917553	1.050062	122.363281	223.339844
67531.919554	1.047005	122.363281	223.339844
67531.921554	1.045078	11.495862	0.542980
67532.939561	0.490926	56.738281	-159.960937
67532.941564	0.782492	56.738281	-159.960937
67532.943562	1.022142	56.738281	-159.960937
67532.945565	1.050453	56.738281	-159.960937
67532.947562	1.047210	11.519312	0.630149
67533.999594	0.367889	122.265625	222.460937
67534.001596	0.662654	122.265625	222.460937
67534.003595	0.945023	122.265625	222.460937
67534.005596	1.052802	122.265625	222.460937
67534.009595	1.046822	11.515040	0.550481
67535.027659	0.363514	51.953125	-161.718750
67535.029662	0.658334	51.953125	-161.718750
67535.031660	0.941284	51.953125	-161.718750
67535.033661	1.052041	51.953125	-161.718750
67535.035661	1.048412	11.532535	0.642584
67536.085716	0.551857	124.804687	228.027344
67536.087718	0.842429	124.804687	228.027344
67536.089718	1.042653	124.804687	228.027344
67536.091718	1.049690	124.804687	228.027344
67536.095717	1.044948	11.494427	0.679903
67537.117689	0.521592	64.160156	-161.718750
67537.119692	0.812627	64.160156	-161.718750
67537.121691	1.033672	64.160156	-161.718750
67537.123693	1.049349	64.160156	-161.718750
67537.125690	1.046445	11.510893	0.633928
67538.174647	0.547703	123.632812	227.441406
67538.176647	0.838364	123.632812	227.441406
67538.178648	1.042111	123.632812	227.441406
67538.180648	1.050262	123.632812	227.441406
67538.182647	1.047290	11.520189	0.641119
67539.206655	1.727580	61.914062	-163.964844
67539.208657	0.813233	61.914062	-163.964844
67539.210657	1.034103	61.914062	-163.964844
67539.212658	1.049822	61.914062	-163.964844
67539.214658	1.046771	11.514482	0.629695
67540.259568	0.556259	123.535156	229.003906
67540.261571	0.846693	123.535156	229.003906
67540.263571	1.043730	123.535156	229.003906
67540.265571	1.049749	123.535156	229.003906
67540.267570	1.046850	11.515351	0.692003
67541.295581	0.517488	37.011719	-167.285156
67541.297581	0.808614	37.011719	-167.285156
67541.299583	1.032398	37.011719	-167.285156
67541.301582	1.049825	37.011719	-167.285156
67541.303582	1.046835	11.515182	0.621186
67542.345592	0.727256	121.386719	227.539062
67542.347593	0.992309	121.386719	227.539062
67542.349593	1.051323	121.386719	227.539062
67542.351593	1.047719	11.524913	0.536841
67543.384111	0.454566	56.347656	-166.699219
67543.386113	0.746894	56.347656	-166.699219
67543.388113	1.003969	56.347656	-166.699219
67543.390113	1.050894	56.347656	-166.699219
67543.392113	1.047400	11.521404	0.628752
67544.428115	0.384382	119.042969	225.000000
67544.432116	0.958097	119.042969	225.000000
67544.434117	1.052454	119.042969	225.000000
67544.436117	1.048673	11.535406	0.557641
67545.472150	0.316935	51.562500	-168.554687
67545.474152	0.613436	51.562500	-168.554687
67545.476151	0.901318	51.562500	-168.554687
67545.478151	1.051558	51.562500	-168.554687
67545.480152	1.049585	11.545439	0.638628
67546.514155	0.556699	120.605469	229.296875
67546.516156	0.847145	120.605469	229.296875
67546.518156	1.043709	120.605469	229.296875
67546.520158	1.049592	120.605469	229.296875
67546.522156	1.046742	11.514163	0.673806
67547.566143	0.455123	75.683594	-166.699219
67547.568145	0.747352	75.683594	-166.699219
67547.570145	1.004127	75.683594	-166.699219
67547.572144	1.050577	75.683594	-166.699219
67547.576143	1.044953	11.494480	0.609707
67548.597049	0.261312	118.457031	224.707031
67548.599052	0.559909	118.457031	224.707031
67548.601051	0.850199	118.457031	224.707031
67548.603052	1.044609	118.457031	224.707031
67548.605052	1.049879	118.457031	224.707031
67548.607053	1.046982	11.516804	0.547315
67549.655029	0.444620	79.492187	-166.113281
67549.657032	0.737167	79.492187	-166.113281
67549.659031	0.998272	79.492187	-166.113281
67549.661033	1.050720	79.492187	-166.113281
67549.663030	1.047170	11.518869	0.633111
67550.683578	0.512704	118.554687	223.632812
67550.685580	0.803883	118.554687	223.632812
67550.687580	1.030852	118.554687	223.632812
67550.689580	1.049993	118.554687	223.632812
67550.691580	1.046893	11.515821	0.558043
67551.748121	0.451062	60.449219	-167.871094
67551.750122	0.743427	60.449219	-167.871094
67551.752122	1.001945	60.449219	-167.871094
67551.756122	1.047065	60.449219	-167.871094
67551.758123	1.045082	11.495907	0.581906
67552.768144	0.469365	116.601562	216.113281
67552.770148	0.761283	116.601562	216.113281
67552.772148	1.011981	116.601562	216.113281
67552.774148	1.015353	116.601562	216.113281
67552.776149	1.047230	11.519525	0.561599
67553.836142	0.310832	58.398437	-166.308594
67553.838144	0.607438	58.398437	-166.308594
67553.840141	0.895588	58.398437	-166.308594
67553.842142	1.050567	58.398437	-166.308594
67553.844143	1.049041	11.539448	0.577737
67554.854166	0.637843	120.312500	217.089844
67554.856170	0.923484	120.312500	217.089844
67554.858168	1.051850	120.312500	217.089844
67554.860169	1.048786	11.536647	0.562840
67555.928677	0.834476	53.515625	-164.843750
67555.930681	1.040459	53.515625	-164.843750
67555.932683	1.049503	53.515625	-164.843750
67555.934682	1.046654	11.513188	0.572645
67556.942680	0.571710	121.191406	212.597656
67556.944686	0.861565	121.191406	212.597656
67556.946687	1.046742	121.191406	212.597656
67556.948687	1.049450	121.191406	212.597656
67556.950688	1.046674	11.513411	0.760276
67558.010667	0.415350	68.652344	-159.960937
67558.012667	0.708702	68.652344	-159.960937
67558.014668	0.980033	68.652344	-159.960937
67558.016669	1.051490	68.652344	-159.960937
67558.018670	1.047731	11.525038	0.580737
67559.026667	0.443880	123.632812	209.472656
67559.028668	0.736405	123.632812	209.472656
67559.030668	0.997885	123.632812	209.472656
67559.032669	1.051007	123.632812	209.472656
67559.034668	1.047386	11.521244	0.598546
67560.099594	0.409352	74.316406	-156.542969
67560.101594	0.702880	74.316406	-156.542969
67560.103594	0.975894	74.316406	-156.542969
67560.105593	1.051632	74.316406	-156.542969
67560.107595	1.047777	11.525552	0.558511
67561.114534	0.279058	122.753906	202.343750
67561.116536	0.576895	122.753906	202.343750
67561.118537	0.866753	122.753906	202.343750
67561.120538	1.048128	122.753906	202.343750
67561.122538	1.050205	122.753906	202.343750
67561.124536	1.047318	11.520499	0.620131
67562.184557	0.426311	52.050781	-156.542969
67562.186560	0.719374	52.050781	-156.542969
67562.188561	0.987276	52.050781	-156.542969
67562.190560	1.051682	52.050781	-156.542969
67562.194558	1.045857	11.504424	0.540755
67563.204571	0.442266	124.218750	199.121094
67563.206571	0.734848	124.218750	199.121094
67563.208571	0.996815	124.218750	199.121094
67563.210572	1.050759	124.218750	199.121094
67563.212571	1.047180	11.518985	0.611316
67564.268602	0.300563	39.160156	-156.054687
67564.270604	0.597575	39.160156	-156.054687
67564.272603	0.886252	39.160156	-156.054687
67564.274603	1.049678	39.160156	-156.054687
67564.276603	1.050004	11.550047	0.531775
67565.294625	0.601210	127.539062	199.218750
67565.296626	0.889667	127.539062	199.218750
67565.298627	1.050012	127.539062	199.218750
67565.300626	1.048834	11.537179	0.891430
67566.356660	0.771902	61.816406	-153.125000
67566.358660	0.782881	61.816406	-153.125000
67566.362658	1.047408	61.816406	-153.125000
67566.364661	1.045364	11.499001	0.543311
67567.386639	1.008811	126.367187	194.433594
67567.388641	1.050633	126.367187	194.433594
67567.390641	1.047210	11.519312	0.609129
67568.445194	0.711812	16.503906	-157.421875
67568.447197	0.982326	16.503906	-157.421875
67568.451194	1.048539	16.503906	-157.421875
67568.453199	1.046291	11.509201	0.515512
67569.471231	0.409896	123.925781	189.062500
67569.473235	0.423433	123.925781	189.062500
67569.475235	0.976282	123.925781	189.062500
67569.479233	1.048055	123.925781	189.062500
67569.481234	1.045814	11.503954	0.611933
67570.529227	0.589700	40.234375	-154.785156
67570.531234	0.878702	40.234375	-154.785156
67570.533234	1.049507	40.234375	-154.785156
67570.535234	1.049468	11.544145	0.541325
67571.559738	0.341462	128.125000	192.578125
67571.561741	0.636958	128.125000	192.578125
67571.563740	0.922741	128.125000	192.578125
67571.565741	1.052242	128.125000	192.578125
67571.567741	1.049218	11.541397	0.608885
67572.613714	0.534077	49.023437	-154.003906
67572.615716	0.824923	49.023437	-154.003906
67572.617715	1.038005	49.023437	-154.003906
67572.619715	1.050017	49.023437	-154.003906
67572.621714	1.047006	11.517061	0.599272
67573.648690	0.339626	124.511719	187.109375
67573.650692	0.635213	124.511719	187.109375
67573.652694	0.921321	124.511719	187.109375
67573.654693	1.052223	124.511719	187.109375
67573.656692	1.049130	11.540431	0.588028
67574.702704	0.538037	44.726562	-155.175781
67574.704705	0.828788	44.726562	-155.175781
67574.706704	1.038829	44.726562	-155.175781
67574.708705	1.049368	44.726562	-155.175781
67574.712703	1.044586	11.490448	0.611880
67575.740719	0.790123	123.144531	184.179687
67575.742719	1.025080	123.144531	184.179687
67575.744721	1.049630	123.144531	184.179687
67575.746720	1.046593	11.512524	0.573837
67576.790772	0.408201	23.046875	-157.910156
67576.792773	0.701642	23.046875	-157.910156
67576.794774	0.975059	23.046875	-157.910156
67576.796772	1.052101	23.046875	-157.910156
67576.798775	1.048412	11.532535	0.525965
67577.822789	0.382160	126.562500	188.964844
67577.824790	0.676424	126.562500	188.964844
67577.826791	0.956136	126.562500	188.964844
67577.828792	1.052281	126.562500	188.964844
67577.830790	1.048562	11.534183	0.585794
67578.875392	0.370544	17.480469	-159.179687
67578.877394	0.665154	17.480469	-159.179687
67578.879394	0.947167	17.480469	-159.179687
67578.881395	1.053057	17.480469	-159.179687
67578.883394	1.049450	11.543949	0.551924
67579.909455	0.647663	126.269531	190.039062
67579.911456	0.932293	126.269531	190.039062
67579.913457	1.052894	126.269531	190.039062
67579.915457	1.049518	11.544694	0.588244
67580.967942	0.292080	19.921875	-160.742187
67580.969944	0.589424	19.921875	-160.742187
67580.971952	0.878440	19.921875	-160.742187
67580.975951	1.049760	19.921875	-160.742187
67580.977953	1.047025	19.921875	-160.742187
67580.979953	1.045230	11.497529	0.520192
67581.999974	0.871003	121.875000	185.058594
67582.001977	1.047816	121.875000	185.058594
67582.003975	1.048919	121.875000	185.058594
67582.005975	1.046182	11.508003	0.566056
67583.057993	0.456457	15.332031	-162.988281
67583.059997	0.748675	15.332031	-162.988281
67583.063993	1.050838	15.332031	-162.988281
67583.065993	1.047358	15.332031	-162.988281
67583.067994	1.045354	11.498894	0.507878
67584.081994	0.458321	121.679687	187.988281
67584.083994	0.750583	121.679687	187.988281
67584.085994	1.005821	121.679687	187.988281
67584.087995	1.050279	121.679687	187.988281
67584.089994	1.046892	11.515811	0.571753
67585.144026	0.628377	20.507812	-165.234375
67585.146028	0.915038	20.507812	-165.234375
67585.148028	1.051961	20.507812	-165.234375
67585.150028	1.049283	11.542114	0.535643
67586.166084	0.343382	120.312500	189.062500
67586.168084	0.638925	120.312500	189.062500
67586.170084	0.924579	120.312500	189.062500
67586.172085	1.052822	120.312500	189.062500
67586.174086	1.049750	11.547246	0.571939
67587.232121	0.503260	24.707031	-167.675781
67587.234123	0.794596	24.707031	-167.675781
67587.236124	1.028158	24.707031	-167.675781
67587.238124	1.051803	24.707031	-167.675781
67587.240124	1.048553	11.534085	0.540716
67588.252165	0.522661	122.167969	195.312500
67588.254167	0.813642	122.167969	195.312500
67588.256168	1.034372	122.167969	195.312500
67588.258167	1.050033	122.167969	195.312500
67588.260167	1.047048	11.517530	0.581500
67589.320155	0.364400	49.902344	-168.261719
67589.322155	0.659194	49.902344	-168.261719
67589.324158	0.942104	49.902344	-168.261719
67589.326155	1.052612	49.902344	-168.261719
67589.328157	1.049033	11.539358	0.560757
67590.336689	0.473010	118.847656	194.726562
67590.338691	0.764868	118.847656	194.726562
67590.340691	1.013402	118.847656	194.726562
67590.342691	1.049961	118.847656	194.726562
67590.344690	1.046695	11.513639	0.567381
67591.410694	0.599620	45.996094	-172.167969
67591.412699	0.888320	45.996094	-172.167969
67591.414697	1.052619	45.996094	-172.167969
67591.416696	1.052122	11.573346	0.524741
67592.425280	0.418135	120.019531	200.585937
67592.427282	0.711326	120.019531	200.585937
67592.429281	0.981748	120.019531	200.585937
67592.431282	1.051275	120.019531	200.585937
67592.435280	1.045395	11.499345	0.551530
67593.498207	0.384287	39.062500	-175.390625
67593.500208	0.678558	39.062500	-175.390625
67593.502210	0.957848	39.062500	-175.390625
67593.504208	1.052267	39.062500	-175.390625
67593.506208	1.048425	11.532677	0.529458
67594.514236	0.416903	119.042969	202.636719
67594.516238	0.710126	119.042969	202.636719
67594.518239	0.980740	119.042969	202.636719
67594.520238	1.050931	119.042969	202.636719
67594.522240	1.047288	11.520164	0.522401
67595.582790	0.341570	39.843750	-177.343750
67595.584793	0.637041	39.843750	-177.343750
67595.586793	0.922839	39.843750	-177.343750
67595.588792	1.052219	39.843750	-177.343750
67595.590791	1.049178	11.540963	0.551457
67596.602801	0.356026	116.796875	200.878906
67596.604804	0.651115	116.796875	200.878906
67596.606802	0.935207	116.796875	200.878906
67596.608803	1.052853	116.796875	200.878906
67596.612800	1.046985	11.516831	0.522555
67597.668825	0.515901	18.457031	-182.031250
67597.670826	0.806981	18.457031	-182.031250
67597.672827	1.032122	18.457031	-182.031250
67597.674827	1.050268	18.457031	-182.031250
67597.676828	1.047231	11.519543	0.542397
67598.692837	0.516014	117.089844	203.222656
67598.694840	0.807114	117.089844	203.222656
67598.698840	1.049894	117.089844	203.222656
67598.700840	1.046781	117.089844	203.222656
67598.702840	1.044877	11.493648	0.506960
67599.754876	0.689941	13.085937	-184.960937
67599.756878	0.966669	13.085937	-184.960937
67599.758879	1.052759	13.085937	-184.960937
67599.760879	1.049011	11.539120	0.553884
67600.780887	0.382456	118.457031	205.175781
67600.782889	0.676738	118.457031	205.175781
67600.784889	0.956383	118.457031	205.175781
67600.786887	1.052461	118.457031	205.175781
67600.788887	1.048722	11.535938	0.523552
67601.838913	0.566766	5.468750	-186.523437
67601.840915	0.856787	5.468750	-186.523437
67601.842914	1.045460	5.468750	-186.523437
67601.844918	1.049180	5.468750	-186.523437
67601.846924	1.046391	11.510300	0.533093
67602.872941	0.834794	118.847656	205.371094
67602.874943	1.040331	118.847656	205.371094
67602.876944	1.049195	118.847656	205.371094
67602.878944	1.046340	11.509741	0.600716
67603.923480	0.525338	20.507812	-185.351562
67603.925484	0.539154	20.507812	-185.351562
67603.927484	1.034562	20.507812	-185.351562
67603.929482	1.049042	20.507812	-185.351562
67603.931484	1.046167	11.507835	0.546679
67604.962008	0.246528	118.359375	203.125000
67604.964009	0.546098	118.359375	203.125000
67604.966010	0.836659	118.359375	203.125000
67604.968008	1.040794	118.359375	203.125000
67604.970010	1.049166	118.359375	203.125000
67604.972009	1.046340	11.509741	0.504762
67606.008047	0.482128	0.878906	-187.597656
67606.010050	0.773698	0.878906	-187.597656
67606.012049	1.017649	0.878906	-187.597656
67606.014049	1.049804	0.878906	-187.597656
67606.016048	1.046636	11.512993	0.535215
67607.052048	0.411974	118.847656	201.464844
67607.054050	0.705362	118.847656	201.464844
67607.056053	0.977799	118.847656	201.464844
67607.058056	1.051520	118.847656	201.464844
67607.060056	1.047740	11.525144	0.482825
67608.094080	0.653659	-4.785156	-187.988281
67608.096082	0.937397	-4.785156	-187.988281
67608.098080	1.051836	-4.785156	-187.988281
67608.100081	1.048295	11.531249	0.547077
67609.140136	0.279196	119.531250	200.781250
67609.142139	0.576852	119.531250	200.781250
67609.144139	0.866366	119.531250	200.781250
67609.146146	1.047019	119.531250	200.781250
67609.148151	1.048951	119.531250	200.781250
67609.150155	1.046193	11.508128	0.496940
67610.178162	0.539631	9.277344	-186.035156
67610.182160	1.040533	9.277344	-186.035156
67610.184162	1.051250	9.277344	-186.035156
67610.186162	1.048217	11.530390	0.558332
67611.232709	0.812135	119.433594	198.730469
67611.234710	1.033636	119.433594	198.730469
67611.236713	1.049814	119.433594	198.730469
67611.238711	1.046802	11.514818	0.504255
67612.262735	0.497083	2.343750	-186.816406
67612.264737	0.788441	2.343750	-186.816406
67612.266736	1.025005	2.343750	-186.816406
67612.268738	1.051005	2.343750	-186.816406
67612.270737	1.047820	11.526021	0.550492
67613.314749	0.400246	120.312500	198.437500
67613.316752	0.693849	120.312500	198.437500
67613.318752	0.969307	120.312500	198.437500
67613.320752	1.051815	120.312500	198.437500
67613.322753	1.048075	11.528822	0.503618
67614.356768	1.051682	-20.507812	-189.453125
67614.358770	1.048213	-20.507812	-189.453125
67614.360770	1.045826	11.504086	0.528374
67615.402787	0.258235	120.019531	196.582031
67615.404789	0.556811	120.019531	196.582031
67615.406789	0.847085	120.019531	196.582031
67615.408789	1.044013	120.019531	196.582031
67615.410791	1.050064	120.019531	196.582031
67615.412789	1.047159	11.518744	0.509013
67616.438827	0.826031	5.175781	-187.304687
67616.440829	1.038034	5.175781	-187.304687
67616.442829	1.049490	5.175781	-187.304687
67616.444828	1.046563	11.512196	0.600396
67617.493355	0.501247	118.164062	193.359375
67617.497355	1.025966	118.164062	193.359375
67617.499356	1.049588	118.164062	193.359375
67617.501356	1.046573	11.512302	0.476455
67618.529352	1.012962	2.636719	-187.695312
67618.531354	1.050358	2.636719	-187.695312
67618.533353	1.047052	11.517575	0.527076
67619.577898	0.451983	120.019531	196.582031
67619.579899	0.744151	120.019531	196.582031
67619.581900	1.002142	120.019531	196.582031
67619.583900	1.050177	120.019531	196.582031
67619.585901	1.046732	11.514048	0.497430
67620.609945	0.429301	13.281250	-187.597656
67620.611948	0.721994	13.281250	-187.597656
67620.613947	0.988651	13.281250	-187.597656
67620.615949	1.050753	13.281250	-187.597656
67620.617949	1.047088	11.517965	0.554134
67621.662463	0.406101	122.070312	199.121094
67621.664464	0.699418	122.070312	199.121094
67621.666464	0.973018	122.070312	199.121094
67621.668465	1.050490	122.070312	199.121094
67621.670466	1.046797	11.514766	0.490965
67622.699002	0.444419	-12.011719	-190.917969
67622.701006	0.736726	-12.011719	-190.917969
67622.703004	0.997962	-12.011719	-190.917969
67622.705005	1.050783	-12.011719	-190.917969
67622.707004	1.047258	11.519835	0.546892
67623.747007	0.360266	118.750000	195.214844
67623.749010	0.655077	118.750000	195.214844
67623.751008	0.938431	118.750000	195.214844
67623.753008	1.051891	118.750000	195.214844
67623.755009	1.048332	11.531649	0.510993
67624.787003	0.301206	19.042969	-189.453125
67624.789006	0.597979	19.042969	-189.453125
67624.791005	0.886439	19.042969	-189.453125
67624.793004	1.049859	19.042969	-189.453125
67624.795006	1.049124	11.540369	0.542666
67625.837033	0.517960	118.750000	196.777344
67625.839034	0.808789	118.750000	196.777344
67625.841035	1.031998	118.750000	196.777344
67625.843033	1.048944	118.750000	196.777344
67625.845035	1.046067	11.506737	0.497263
67626.877600	0.543412	-9.179687	-193.457031
67626.879602	0.833841	-9.179687	-193.457031
67626.881603	1.039925	-9.179687	-193.457031
67626.883601	1.048991	-9.179687	-193.457031
67626.885602	1.046139	11.507525	0.539271
67627.921646	0.480046	116.308594	193.750000
67627.923647	0.771532	116.308594	193.750000
67627.925649	1.016711	116.308594	193.750000
67627.927649	1.050050	116.308594	193.750000
67627.929653	1.046818	11.514997	0.477872
67628.965712	1.459542	6.542969	-193.066406
67628.967715	0.713136	6.542969	-193.066406
67628.969714	0.982529	6.542969	-193.066406
67628.971714	1.050281	6.542969	-193.066406
67628.973715	1.046646	11.513108	0.540335
67630.003719	0.671287	119.335937	198.339844
67630.005719	0.951963	119.335937	198.339844
67630.007720	1.052813	119.335937	198.339844
67630.009719	1.049157	11.540724	0.521207
67631.054646	0.414888	27.441406	-191.113281
67631.056647	0.708051	27.441406	-191.113281
67631.058647	0.979115	27.441406	-191.113281
67631.060649	1.050391	27.441406	-191.113281
67631.064646	1.044556	11.490120	0.534700
67632.090667	0.375489	118.164062	196.093750
67632.092671	0.669724	118.164062	196.093750
67632.094670	0.950650	118.164062	196.093750
67632.096670	1.052588	118.164062	196.093750
67632.098670	1.048827	11.537099	0.486299
67633.143633	0.420691	28.710937	-190.527344
67633.145636	0.713621	28.710937	-190.527344
67633.147635	0.982950	28.710937	-190.527344
67633.149637	0.987252	28.710937	-190.527344
67633.151638	1.046681	11.513491	0.536861
67634.172594	0.546659	117.089844	192.675781
67634.174597	0.837021	117.089844	192.675781
67634.176595	1.040831	117.089844	192.675781
67634.178596	1.048923	117.089844	192.675781
67634.180595	1.048840	11.537241	0.617410
67635.232612	0.424670	6.738281	-192.382812
67635.234614	0.717458	6.738281	-192.382812
67635.236613	0.985458	6.738281	-192.382812
67635.238614	1.050600	6.738281	-192.382812
67635.240613	1.047030	11.517327	0.542112
67636.256676	0.433315	116.015625	188.476562
67636.258678	0.725861	116.015625	188.476562
67636.260677	0.990956	116.015625	188.476562
67636.262677	1.050236	116.015625	188.476562
67636.264676	1.046723	11.513950	0.504875
67637.322701	0.589790	5.761719	-190.917969
67637.324705	0.878497	5.761719	-190.917969
67637.326703	1.048855	5.761719	-190.917969
67637.328704	1.048962	11.538579	0.531150
67638.346729	0.593982	119.238281	189.746094
67638.348731	0.882590	119.238281	189.746094
67638.350732	0.888429	119.238281	189.746094
67638.352732	1.048842	11.537267	0.492354
67639.410724	0.452695	17.773437	-187.500000
67639.412726	0.744752	17.773437	-187.500000
67639.414727	1.002365	17.773437	-187.500000
67639.416729	1.050171	17.773437	-187.500000
67639.418733	1.046738	11.514118	0.516428
67640.430774	0.472874	116.113281	181.347656
67640.432775	0.764492	116.113281	181.347656
67640.434778	1.013214	116.113281	181.347656
67640.436775	1.050306	116.113281	181.347656
67640.438777	1.047015	11.517167	0.495879
67641.498809	0.322630	8.300781	-186.132812
67641.500811	0.618563	8.300781	-186.132812
67641.502812	0.905853	8.300781	-186.132812
67641.504813	1.053779	8.300781	-186.132812
67641.506811	1.051873	11.570606	0.508253
67642.514847	0.357085	121.582031	184.375000
67642.516849	0.651929	121.582031	184.375000
67642.518848	0.935724	121.582031	184.375000
67642.522847	1.048657	121.582031	184.375000
67642.526847	1.044528	11.489809	0.518044
67643.590843	0.773081	16.308594	-183.105469
67643.592846	1.017433	16.308594	-183.105469
67643.594845	1.049955	16.308594	-183.105469
67643.596845	1.046720	11.513915	0.484619
67644.605387	0.588533	117.480469	175.195312
67644.607389	0.877325	117.480469	175.195312
67644.609389	1.048349	117.480469	175.195312
67644.611390	1.048530	117.480469	175.195312
67644.613389	1.045853	11.504389	0.517538
67645.673419	0.440691	-4.882812	-183.691406
67645.675421	0.733128	-4.882812	-183.691406
67645.677422	0.995552	-4.882812	-183.691406
67645.679427	1.050579	-4.882812	-183.691406
67645.681424	1.046929	11.516219	0.486766
67646.695467	0.751579	121.679687	176.171875
67646.697469	1.006072	121.679687	176.171875
67646.699468	1.049733	121.679687	176.171875
67646.701467	1.046425	11.510680	0.525100
67647.758017	0.401347	-6.445312	-181.542969
67647.762021	0.969773	-6.445312	-181.542969
67647.764022	1.050982	-6.445312	-181.542969
67647.766021	1.047180	11.518985	0.496280
67648.782035	0.400844	119.726562	170.703125
67648.784035	0.694351	119.726562	170.703125
67648.786034	0.969489	119.726562	170.703125
67648.788036	1.051380	119.726562	170.703125
67648.790036	1.047608	11.523691	0.505089
67649.844092	0.576387	-15.136719	-183.203125
67649.846094	0.865772	-15.136719	-183.203125
67649.848094	1.046948	-15.136719	-183.203125
67649.850095	1.048915	-15.136719	-183.203125
67649.852096	1.046183	11.508013	0.503803
67650.868104	0.577696	119.726562	168.066406
67650.870106	0.867030	119.726562	168.066406
67650.872106	1.047298	119.726562	168.066406
67650.874108	1.049055	119.726562	168.066406
67650.876106	1.046285	11.509138	0.537584
67651.932156	0.444007	-21.484375	-182.519531
67651.934159	0.736352	-21.484375	-182.519531
67651.936160	0.997340	-21.484375	-182.519531
67651.938160	1.049943	-21.484375	-182.519531
67651.940159	1.046500	11.511496	0.474829
67652.956186	0.448744	119.628906	166.601562
67652.958188	0.741037	119.628906	166.601562
67652.960191	1.000524	119.628906	166.601562
67652.962193	1.050801	119.628906	166.601562
67652.964193	1.047234	11.519579	0.532954
67654.016223	0.326766	-16.894531	-181.835937
67654.018227	0.622519	-16.894531	-181.835937
67654.020226	0.909482	-16.894531	-181.835937
67654.022227	1.050527	-16.894531	-181.835937
67654.024226	1.047970	11.527669	0.489597
67655.044229	0.311928	120.996094	166.015625
67655.046229	0.608208	120.996094	166.015625
67655.048232	0.896116	120.996094	166.015625
67655.050232	1.050378	120.996094	166.015625
67655.052232	1.050627	11.556897	0.518456
67656.108290	0.782225	-30.761719	-182.617187
67656.110292	1.021597	-30.761719	-182.617187
67656.112292	1.049743	-30.761719	-182.617187
67656.114291	1.046623	11.512852	0.454789
67657.134298	1.021592	125.390625	169.921875
67657.136300	1.049036	125.390625	169.921875
67657.138301	1.045982	11.505796	0.523160
67658.190286	0.362346	-2.148437	-178.613281
67658.192287	0.656967	-2.148437	-178.613281
67658.194287	0.939839	-2.148437	-178.613281
67658.196288	1.051095	-2.148437	-178.613281
67658.198288	1.047565	11.523212	0.471667
67659.220802	0.717771	124.121094	168.457031
67659.222805	0.728255	124.121094	168.457031
67659.224806	1.051063	124.121094	168.457031
67659.226804	1.047383	11.521217	0.523617
67660.279353	0.378882	6.054687	-178.515625
67660.281354	0.672974	6.054687	-178.515625
67660.283355	0.953375	6.054687	-178.515625
67660.285355	1.053235	6.054687	-178.515625
67660.287355	1.049607	11.545677	0.463612
67661.303370	0.381556	124.121094	167.968750
67661.305370	0.675606	124.121094	167.968750
67661.309370	1.052746	124.121094	167.968750
67661.311370	1.048939	124.121094	167.968750
67661.313372	1.046607	11.512674	0.523068
67662.363919	0.334207	-22.851562	-182.617187
67662.367919	0.916144	-22.851562	-182.617187
67662.369921	1.050954	-22.851562	-182.617187
67662.371922	1.048095	11.529043	0.462181
67663.387931	0.335665	121.289062	166.699219
67663.389933	0.631111	121.289062	166.699219
67663.391932	0.917308	121.289062	166.699219
67663.393932	1.051347	121.289062	166.699219
67663.395933	1.048448	11.532925	0.519189
67664.453982	0.498153	-10.742187	-183.105469
67664.455984	0.789347	-10.742187	-183.105469
67664.457984	1.024552	-10.742187	-183.105469
67664.459984	1.049389	-10.742187	-183.105469
67664.461985	1.046304	11.509342	0.494130
67665.477985	0.499369	120.996094	166.601562
67665.479988	0.790477	120.996094	166.601562
67665.481987	1.025207	120.996094	166.601562
67665.483987	1.049755	120.996094	166.601562
67665.485989	1.046676	11.513436	0.497203
67666.539994	0.666833	9.082031	-183.300781
67666.541996	0.948198	9.082031	-183.300781
67666.543998	1.051814	9.082031	-183.300781
67666.545997	1.048121	11.529336	0.499222
67667.562558	0.456732	121.386719	169.531250
67667.564560	0.748706	121.386719	169.531250
67667.566561	1.004475	121.386719	169.531250
67667.568563	1.049655	121.386719	169.531250
67667.570560	1.046288	11.509173	0.516774
67668.626594	0.317350	-4.296875	-186.816406
67668.628597	0.613407	-4.296875	-186.816406
67668.630596	0.900989	-4.296875	-186.816406
67668.632595	1.049893	-4.296875	-186.816406
67668.634597	1.047864	11.526500	0.490219
67669.646587	0.332138	119.140625	169.433594
67669.648587	0.627756	119.140625	169.433594
67669.652586	1.050836	119.140625	169.433594
67669.654589	1.047975	119.140625	169.433594
67669.656589	1.047848	11.526322	0.522621
67670.716630	0.478216	-8.691406	-189.746094
67670.718631	0.769714	-8.691406	-189.746094
67670.720631	1.015488	-8.691406	-189.746094
67670.722632	1.049365	-8.691406	-189.746094
67670.724630	1.046189	11.508083	0.477764
67671.736632	0.492489	121.386719	174.511719
67671.738634	0.783715	121.386719	174.511719
67671.740635	1.022142	121.386719	174.511719
67671.742634	1.049350	121.386719	174.511719
67671.744634	1.046293	11.509227	0.480729
67672.804644	0.337903	8.886719	-190.820312
67672.806650	0.362405	8.886719	-190.820312
67672.808655	0.920800	8.886719	-190.820312
67672.810655	1.052033	8.886719	-190.820312
67672.812654	1.049052	11.539572	0.473403
67673.821574	0.504230	120.410156	176.562500
67673.823576	0.795323	120.410156	176.562500
67673.825577	1.026847	120.410156	176.562500
67673.827573	1.048944	120.410156	176.562500
67673.829576	1.045955	11.505505	0.487064
67674.891595	0.646630	7.910156	-194.335937
67674.893597	0.931156	7.910156	-194.335937
67674.895597	1.052428	7.910156	-194.335937
67674.897597	1.049113	11.540245	0.496306
67675.910126	0.442786	115.136719	172.363281
67675.912128	0.735102	115.136719	172.363281
67675.914129	0.996631	115.136719	172.363281
67675.918127	1.046635	115.136719	172.363281
67675.920129	1.044605	11.490661	0.487737
67676.982144	0.872889	-15.527344	-200.097656
67676.984143	1.048499	-15.527344	-200.097656
67676.986144	1.049042	-15.527344	-200.097656
67676.988144	1.046784	11.514625	0.740085
67677.998189	0.310143	114.355469	173.925781
67678.000192	0.606501	114.355469	173.925781
67678.002190	0.894528	114.355469	173.925781
67678.006190	1.048252	114.355469	173.925781
67678.008191	1.045707	11.502775	0.487756
67679.066232	0.761935	-13.964844	-202.832031
67679.068233	1.011934	-13.964844	-202.832031
67679.070233	1.050029	-13.964844	-202.832031
67679.072234	1.046786	11.514642	0.456923
67680.088255	0.475037	115.234375	176.660156
67680.090258	0.766659	115.234375	176.660156
67680.092257	1.013889	115.234375	176.660156
67680.094258	1.049325	115.234375	176.660156
67680.096257	1.046176	11.507933	0.477043
67681.148333	0.358245	-14.257812	-205.273437
67681.150334	0.653029	-14.257812	-205.273437
67681.154331	0.940888	-14.257812	-205.273437
67681.156336	1.048468	-14.257812	-205.273437
67681.158340	1.046113	11.507242	0.530968
67682.172373	0.362627	114.550781	177.148437
67682.174378	0.657279	114.550781	177.148437
67682.176379	0.940697	114.550781	177.148437
67682.178380	1.051983	114.550781	177.148437
67682.180380	1.048416	11.532578	0.493088
67683.236434	0.548653	-4.980469	-205.859375
67683.238435	1.038380	-4.980469	-205.859375
67683.240437	1.048366	-4.980469	-205.859375
67683.242436	1.045583	11.501410	0.593120
67684.262438	0.526357	116.601562	180.175781
67684.264440	0.817003	116.601562	180.175781
67684.266440	1.035202	116.601562	180.175781
67684.268442	1.049508	116.601562	180.175781
67684.270441	1.046591	11.512506	0.511695
67685.318471	0.419530	-3.710937	-206.250000
67685.320474	0.712546	-3.710937	-206.250000
67685.322472	0.982059	-3.710937	-206.250000
67685.324473	1.050134	-3.710937	-206.250000
67685.326472	1.046579	11.512363	0.491627
67686.352492	0.688297	117.285156	180.664062
67686.354494	0.964894	117.285156	180.664062
67686.356494	1.050907	117.285156	180.664062
67686.358494	1.047048	11.517530	0.480661
67687.408521	1.048679	-5.761719	-207.031250
67687.410523	1.048287	11.531152	0.776709
67688.441048	0.627901	115.429687	178.027344
67688.443050	0.914513	115.429687	178.027344
67688.445049	1.051362	115.429687	178.027344
67688.447049	1.048547	11.534015	0.473211
67689.489068	0.546147	-19.824219	-208.691406
67689.491070	0.836579	-19.824219	-208.691406
67689.493072	1.040666	-19.824219	-208.691406
67689.495071	1.048913	-19.824219	-208.691406
67689.497071	1.046094	11.507037	0.600654
67690.529119	0.498568	115.917969	177.050781
67690.531121	0.789718	115.917969	177.050781
67690.533121	1.024845	115.917969	177.050781
67690.535122	1.049523	115.917969	177.050781
67690.537122	1.046471	11.511177	0.477850
67691.575156	0.724045	-18.652344	-208.496094
67691.577160	0.989766	-18.652344	-208.496094
67691.579158	1.050029	-18.652344	-208.496094
67691.581158	1.046486	11.511345	0.483126
67692.619198	0.661629	116.992187	177.343750
67692.621200	0.943931	116.992187	177.343750
67692.625200	1.048470	116.992187	177.343750
67692.627201	1.046122	11.507339	0.474325
67693.657232	0.314144	-2.539062	-207.519531
67693.659236	0.610373	-2.539062	-207.519531
67693.661240	0.898434	-2.539062	-207.519531
67693.663240	1.050603	-2.539062	-207.519531
67693.665240	1.048660	11.535255	0.493031
67694.709272	0.821267	117.871094	177.832031
67694.711276	1.036454	117.871094	177.832031
67694.713273	1.049224	117.871094	177.832031
67694.715274	1.046351	11.509856	0.512303
67695.747784	0.548108	-32.031250	-211.230469
67695.751784	1.041099	-32.031250	-211.230469
67695.753785	1.048854	-32.031250	-211.230469
67695.757784	1.044091	11.484997	0.595884
67696.791826	0.484951	117.578125	176.269531
67696.793827	0.776387	117.578125	176.269531
67696.795828	1.018734	117.578125	176.269531
67696.797827	1.049314	117.578125	176.269531
67696.799828	1.046125	11.507374	0.474755
67697.831880	2.060915	-36.816406	-212.988281
67697.833880	0.729418	-36.816406	-212.988281
67697.835879	0.993248	-36.816406	-212.988281
67697.837880	1.050362	-36.816406	-212.988281
67697.839879	1.046861	11.515467	0.479563
67698.879909	0.356964	117.089844	175.195312
67698.881912	0.651778	117.089844	175.195312
67698.883912	0.935714	117.089844	175.195312
67698.885911	1.053124	117.089844	175.195312
67698.887912	1.049821	11.548026	0.470144
67699.917946	0.615092	-3.808594	-209.082031
67699.919947	0.902538	-3.808594	-209.082031
67699.921948	1.050942	-3.808594	-209.082031
67699.923947	1.048762	11.536382	0.493674
67700.969944	0.515658	119.531250	177.832031
67700.971945	0.806529	119.531250	177.832031
67700.973943	1.031760	119.531250	177.832031
67700.975945	1.050111	119.531250	177.832031
67700.977945	1.047028	11.517309	0.452812
67702.007954	0.765729	-32.324219	-212.011719
67702.009955	1.013902	-32.324219	-212.011719
67702.011957	1.050168	-32.324219	-212.011719
67702.013956	1.046885	11.515731	0.483996
67703.054011	0.397250	115.332031	173.730469
67703.056014	0.690803	115.332031	173.730469
67703.058014	0.966823	115.332031	173.730469
67703.060013	1.051220	115.332031	173.730469
67703.062014	1.047565	11.523220	0.437605
67704.096042	0.641341	-23.144531	-211.816406
67704.098042	0.926427	-23.144531	-211.816406
67704.100044	1.052142	-23.144531	-211.816406
67704.102045	1.048896	11.537861	0.484921
67705.138035	0.270112	116.796875	175.195312
67705.140037	0.567900	116.796875	175.195312
67705.144035	1.045718	116.796875	175.195312
67705.146039	1.049347	116.796875	175.195312
67705.148037	1.046524	11.511762	0.455846
67706.184048	0.499561	-26.562500	-212.890625
67706.186051	0.790734	-26.562500	-212.890625
67706.188051	1.025224	-26.562500	-212.890625
67706.190051	1.049618	-26.562500	-212.890625
67706.194048	1.044483	11.489314	0.471429
67707.224094	1.174808	119.824219	178.906250
67707.226096	0.742034	119.824219	178.906250
67707.228094	1.000660	119.824219	178.906250
67707.230096	1.049884	119.824219	178.906250
67707.232095	1.046426	11.510689	0.472820
67708.274626	0.737455	-17.187500	-211.425781
67708.276628	0.998177	-17.187500	-211.425781
67708.278628	1.050182	-17.187500	-211.425781
67708.280627	1.046667	11.513339	0.459948
67709.308652	0.407333	116.699219	175.097656
67709.310653	0.700512	116.699219	175.097656
67709.312656	0.973745	116.699219	175.097656
67709.314654	1.050500	116.699219	175.097656
67709.316655	1.046833	11.515164	0.457127
67710.358676	0.618987	-15.332031	-211.523437
67710.360677	0.906143	-15.332031	-211.523437
67710.364676	1.048759	-15.332031	-211.523437
67710.366678	1.046302	11.509324	0.484282
67711.396731	0.273390	116.113281	174.023437
67711.398733	0.571179	116.113281	174.023437
67711.400733	0.860813	116.113281	174.023437
67711.402733	1.046173	116.113281	174.023437
67711.404732	1.049067	116.113281	174.023437
67711.406733	1.048957	11.538526	0.435823
67712.446738	0.488253	-16.699219	-212.304687
67712.448740	0.779606	-16.699219	-212.304687
67712.450741	1.020466	-16.699219	-212.304687
67712.452741	1.049841	-16.699219	-212.304687
67712.456738	1.044720	11.491920	0.477069
67713.482736	0.445104	117.773437	175.878906
67713.484739	0.737345	117.773437	175.878906
67713.486739	0.998232	117.773437	175.878906
67713.488739	1.050409	117.773437	175.878906
67713.490738	1.046860	11.515457	0.438172
67714.539285	0.985471	0.292969	-210.449219
67714.541286	1.050592	0.292969	-210.449219
67714.543285	1.047009	11.517097	0.466326
67715.567822	0.475310	114.355469	170.605469
67715.569825	0.766825	114.355469	170.605469
67715.571826	1.014139	114.355469	170.605469
67715.573825	1.049588	114.355469	170.605469
67715.575823	1.046409	11.510494	0.434728
67716.625842	0.660010	-3.613281	-210.742187
67716.629841	1.052540	-3.613281	-210.742187
67716.631841	1.048901	-3.613281	-210.742187
67716.633842	1.046562	11.512187	0.479768
67717.652354	0.427412	115.917969	170.996094
67717.654357	0.720078	115.917969	170.996094
67717.656356	0.987096	115.917969	170.996094
67717.658357	1.049909	115.917969	170.996094
67717.662357	1.044275	11.487027	0.450885
67718.712420	0.307201	3.710937	-209.277344
67718.714421	0.603599	3.710937	-209.277344
67718.716422	0.891780	3.710937	-209.277344
67718.718420	1.049914	3.710937	-209.277344
67718.720421	1.048475	11.533227	0.471750
67719.736973	0.391479	116.015625	169.531250
67719.738974	0.406220	116.015625	169.531250
67719.740974	0.962653	116.015625	169.531250
67719.742974	1.051847	116.015625	169.531250
67719.746974	1.045802	11.503820	0.452803
67720.800990	0.246432	-17.382812	-210.253906
67720.802992	0.545946	-17.382812	-210.253906
67720.804991	0.836306	-17.382812	-210.253906
67720.806990	1.040595	-17.382812	-210.253906
67720.808991	1.048767	-17.382812	-210.253906
67720.810991	1.045941	11.505354	0.479672
67721.823038	0.566360	113.867187	164.257812
67721.825040	0.856104	113.867187	164.257812
67721.827040	1.045268	113.867187	164.257812
67721.829040	1.049151	113.867187	164.257812
67721.831040	1.046317	11.509484	0.647445
67722.887083	0.432267	-11.914062	-208.203125
67722.889083	0.724849	-11.914062	-208.203125
67722.891083	0.990504	-11.914062	-208.203125
67722.893083	1.050818	-11.914062	-208.203125
67722.895083	1.047176	11.518940	0.482426
67723.907113	0.451605	114.941406	162.695312
67723.909114	0.743783	114.941406	162.695312
67723.911112	1.002039	114.941406	162.695312
67723.913114	1.050631	114.941406	162.695312
67723.915113	1.047110	11.518213	0.462490
67724.977136	0.594829	-2.050781	-204.785156
67724.979145	0.883366	-2.050781	-204.785156
67724.985142	1.046550	-2.050781	-204.785156
67724.987145	1.044735	11.492087	0.459689
67725.995723	0.399306	115.234375	159.960937
67725.997724	0.692824	115.234375	159.960937
67725.999725	0.968345	115.234375	159.960937
67726.001724	1.051201	115.234375	159.960937
67726.003724	1.047461	11.522069	0.448446
67727.065737	0.541644	-16.406250	-204.687500
67727.067738	0.832021	-16.406250	-204.687500
67727.069739	1.039361	-16.406250	-204.687500
67727.073737	1.045909	-16.406250	-204.687500
67727.075739	1.043952	11.483473	0.550734
67728.079755	0.273214	119.042969	160.937500
67728.081758	0.570788	119.042969	160.937500
67728.083757	0.860407	119.042969	160.937500
67728.085756	1.045224	119.042969	160.937500
67728.087756	1.047946	119.042969	160.937500
67728.089756	1.045257	11.497829	0.471140
67729.149761	0.418947	-24.414062	-203.613281
67729.151764	0.711918	-24.414062	-203.613281
67729.153765	0.981673	-24.414062	-203.613281
67729.155768	1.050194	-24.414062	-203.613281
67729.157772	1.046552	11.512072	0.452374
67730.171771	0.726600	119.628906	158.984375
67730.173774	0.991341	119.628906	158.984375
67730.175774	1.050089	119.628906	158.984375
67730.179773	1.044415	11.488560	0.458292
67731.236702	0.723772	-17.968750	-201.660156
67731.238705	0.989595	-17.968750	-201.660156
67731.240705	1.050488	-17.968750	-201.660156
67731.242704	1.047010	11.517105	0.457402
67732.256722	0.737826	121.777344	158.105469
67732.258725	0.998225	121.777344	158.105469
67732.260725	1.050097	121.777344	158.105469
67732.262725	1.046583	11.512408	0.471973
67733.323266	0.371316	-15.332031	-199.316406
67733.325266	0.665645	-15.332031	-199.316406
67733.327268	0.947136	-15.332031	-199.316406
67733.329269	1.052113	-15.332031	-199.316406
67733.331268	1.048484	11.533323	0.446378
67734.343815	0.465387	119.335937	154.199219
67734.345813	0.757087	119.335937	154.199219
67734.347814	1.009216	119.335937	154.199219
67734.349815	1.050007	119.335937	154.199219
67734.351813	1.046676	11.513436	0.479312
67735.407846	0.327727	-32.910156	-199.414062
67735.409848	0.623415	-32.910156	-199.414062
67735.411849	0.910281	-32.910156	-199.414062
67735.413847	1.050863	-32.910156	-199.414062
67735.415850	1.048313	11.531445	0.442484
67736.433845	0.624235	120.117187	153.710937
67736.435847	0.910987	120.117187	153.710937
67736.437847	1.051012	120.117187	153.710937
67736.439847	1.048419	11.532605	0.473224
67737.493902	0.505513	-11.816406	-197.460937
67737.495904	0.796483	-11.816406	-197.460937
67737.497906	1.027397	-11.816406	-197.460937
67737.499904	1.049116	-11.816406	-197.460937
67737.501904	1.046146	11.507605	0.439296
67738.519873	0.791370	123.046875	155.175781
67738.521875	1.025361	123.046875	155.175781
67738.523875	1.049344	123.046875	155.175781
67738.525875	1.046314	11.509449	0.473489
67739.582402	0.439756	-22.167969	-197.656250
67739.584405	0.732149	-22.167969	-197.656250
67739.586404	0.995111	-22.167969	-197.656250
67739.588406	1.050721	-22.167969	-197.656250
67739.590408	1.047122	11.518337	0.451220
67740.606943	0.514651	121.972656	153.320312
67740.608945	0.805419	121.972656	153.320312
67740.610942	1.030988	121.972656	153.320312
67740.612944	1.049276	121.972656	153.320312
67740.614943	1.046329	11.509617	0.467931
67741.666987	0.395461	-37.988281	-199.414062
67741.668990	0.689076	-37.988281	-199.414062
67741.670990	0.965473	-37.988281	-199.414062
67741.672990	0.969719	-37.988281	-199.414062
67741.674989	1.047512	11.522635	0.438733
67742.693039	0.696058	121.289062	152.832031
67742.695041	0.970665	121.289062	152.832031
67742.697043	1.050829	121.289062	152.832031
67742.699041	1.047041	11.517451	0.484258
67743.757066	0.559468	-13.671875	-198.339844
67743.759066	0.849528	-13.671875	-198.339844
67743.761070	1.044278	-13.671875	-198.339844
67743.763072	1.049536	-13.671875	-198.339844
67743.765072	1.046719	11.513906	0.608207
67744.781052	0.556843	121.972656	153.808594
67744.783054	0.846938	121.972656	153.808594
67744.785054	1.042864	121.972656	153.808594
67744.787056	1.048532	121.972656	153.808594
67744.789054	1.045833	11.504158	0.471571
67745.845094	0.993967	-38.769531	-201.367187
67745.847096	1.050629	-38.769531	-201.367187
67745.849098	1.047135	11.518488	0.436839
67746.865093	0.436956	120.605469	152.832031
67746.867094	0.729413	120.605469	152.832031
67746.869095	0.993130	120.605469	152.832031
67746.871095	1.050128	120.605469	152.832031
67746.873095	1.046649	11.513135	0.470547
67747.929138	0.300183	-33.593750	-202.246094
67747.931139	0.596931	-33.593750	-202.246094
67747.933139	0.885451	-33.593750	-202.246094
67747.935139	1.049251	-33.593750	-202.246094
67747.937140	1.048348	11.531826	0.448348
67748.949167	0.317586	119.433594	153.027344
67748.951175	0.613628	119.433594	153.027344
67748.953177	0.639127	119.433594	153.027344
67748.955179	1.050870	119.433594	153.027344
67748.957176	1.048780	11.536585	0.494443
67750.019247	0.472940	-16.992187	-203.710937
67750.021251	0.764549	-16.992187	-203.710937
67750.025248	1.050147	-16.992187	-203.710937
67750.027249	1.046725	-16.992187	-203.710937
67750.029252	1.044750	11.492247	0.464415
67751.041292	0.784656	122.949219	157.812500
67751.043296	1.023281	122.949219	157.812500
67751.045294	1.050947	122.949219	157.812500
67751.047295	1.047645	11.524097	0.480620
67752.103339	0.357412	-16.601562	-204.980469
67752.105341	0.369295	-16.601562	-204.980469
67752.107342	0.935803	-16.601562	-204.980469
67752.109340	1.051501	-16.601562	-204.980469
67752.111340	1.047969	11.527660	0.467329
67753.123339	0.370453	117.187500	154.199219
67753.125340	0.664787	117.187500	154.199219
67753.127340	0.946576	117.187500	154.199219
67753.129343	1.052283	117.187500	154.199219
67753.131342	1.048653	11.535185	0.469009
67754.193356	0.511885	-21.679687	-208.007812
67754.195355	0.802785	-21.679687	-208.007812
67754.197357	1.029803	-21.679687	-208.007812
67754.199355	1.049098	-21.679687	-208.007812
67754.201359	1.046172	11.507889	0.445200
67755.209381	0.543882	119.824219	158.496094
67755.211382	0.834226	119.824219	158.496094
67755.213381	1.039832	119.824219	158.496094
67755.215382	1.048747	119.824219	158.496094
67755.217382	1.045947	11.505417	0.575215
67756.277412	0.395042	-13.671875	-209.765625
67756.279413	0.688619	-13.671875	-209.765625
67756.281413	0.965193	-13.671875	-209.765625
67756.283413	1.051234	-13.671875	-209.765625
67756.285414	1.047491	11.522406	0.460521
67757.297417	0.410112	116.015625	156.640625
67757.299420	0.703317	116.015625	156.640625
67757.301418	0.975684	116.015625	156.640625
67757.303420	0.980411	116.015625	156.640625
67757.305419	1.046546	11.512001	0.454931
67758.365450	0.253078	-17.382812	-212.890625
67758.367450	0.551925	-17.382812	-212.890625
67758.369452	0.842125	-17.382812	-212.890625
67758.371462	1.041933	-17.382812	-212.890625
67758.373467	1.048622	-17.382812	-212.890625
67758.375467	1.045847	11.504317	0.440965
67759.385497	0.874541	117.968750	161.621094
67759.387498	1.047912	117.968750	161.621094
67759.389498	1.048477	117.968750	161.621094
67759.391498	1.045488	11.500373	0.446085
67760.456021	0.495139	-15.234375	-215.429687
67760.458021	0.786304	-15.234375	-215.429687
67760.462020	1.049137	-15.234375	-215.429687
67760.464021	1.046115	-15.234375	-215.429687
67760.466020	1.044122	11.485343	0.416185
67761.474039	0.817681	116.601562	161.914062
67761.476042	1.034963	116.601562	161.914062
67761.478042	1.048806	116.601562	161.914062
67761.480043	1.045950	11.505452	0.449798
67762.542571	0.742895	-10.742187	-217.675781
67762.544575	1.001213	-10.742187	-217.675781
67762.546573	1.049864	-10.742187	-217.675781
67762.548574	1.046409	11.510494	0.433103
67763.557083	0.553289	117.968750	164.355469
67763.559085	0.843460	117.968750	164.355469
67763.561084	1.042073	117.968750	164.355469
67763.563084	1.048528	117.968750	164.355469
67763.565085	1.045799	11.503795	0.444611
67764.627641	0.771239	-6.835937	-219.921875
67764.629642	1.016221	-6.835937	-219.921875
67764.631643	1.049233	-6.835937	-219.921875
67764.633644	1.046098	11.507082	0.424003
67765.648179	0.861921	114.062500	161.523437
67765.650176	1.045735	114.062500	161.523437
67765.652177	1.048147	114.062500	161.523437
67765.654177	1.045462	11.500081	0.656138
67766.710177	0.431153	-5.371094	-222.558594
67766.714179	0.989646	-5.371094	-222.558594
67766.716179	1.050779	-5.371094	-222.558594
67766.718178	1.047167	11.518834	0.456445
67767.735092	0.566600	116.503906	164.941406
67767.737094	0.856356	116.503906	164.941406
67767.739094	1.044546	116.503906	164.941406
67767.741093	1.047972	116.503906	164.941406
67767.743094	1.045318	11.498504	0.433049
