time (s)	coil I (A)	last det (V)	int current (uC)
66986.003819	0.348039	135.058594	-179.882812
66986.005822	0.642277	135.058594	-179.882812
66986.007820	0.774571	135.058594	-179.882812
66986.009822	0.772335	8.495688	0.680197
66987.067848	0.752758	157.812500	171.972656
66987.069849	0.771916	157.812500	171.972656
66987.071848	0.769550	8.465052	0.673031
66988.094415	0.587328	140.625000	-188.378906
66988.096416	0.771609	140.625000	-188.378906
66988.098420	0.773067	140.625000	-188.378906
66988.100421	0.770764	8.478398	0.920226
66989.166420	0.420963	151.953125	185.546875
66989.168421	0.700462	151.953125	185.546875
66989.170422	0.773788	151.953125	185.546875
66989.172423	0.770851	8.479364	0.579750
66990.186977	0.517721	123.730469	-186.816406
66990.188979	0.752609	123.730469	-186.816406
66990.190979	0.772733	123.730469	-186.816406
66990.192980	0.770319	8.473506	0.672915
66991.240997	0.701065	154.003906	186.718750
66991.242998	0.773593	154.003906	186.718750
66991.244998	0.770698	8.477681	0.759875
66992.269562	0.741213	131.152344	-194.140625
66992.271564	0.772986	131.152344	-194.140625
66992.273563	0.770395	8.474339	0.668783
66993.335595	0.339148	143.847656	204.101562
66993.339595	0.774902	143.847656	204.101562
66993.341597	0.773075	143.847656	204.101562
66993.343597	0.770950	8.480454	0.629043
66994.379626	0.769271	121.093750	-183.398437
66994.381628	0.772152	121.093750	-183.398437
66994.383628	0.769960	8.469563	0.751142
66995.399615	0.283261	148.242187	196.386719
66995.401617	0.581210	148.242187	196.386719
66995.403618	0.769991	148.242187	196.386719
66995.405617	0.773020	148.242187	196.386719
66995.407618	0.770724	8.477964	0.885808
66996.483655	0.675586	145.507812	-182.324219
66996.485656	0.774399	145.507812	-182.324219
66996.487656	0.771435	8.485790	0.550704
66997.489654	0.442543	145.605469	195.410156
66997.491657	0.454010	145.605469	195.410156
66997.493655	0.773276	145.605469	195.410156
66997.495656	0.770404	8.474445	0.794135
66998.566231	0.346282	160.253906	-172.265625
66998.568231	0.640838	160.253906	-172.265625
66998.574231	0.770945	160.253906	-172.265625
66998.578232	0.768456	8.453017	0.517292
66999.562236	0.447180	146.191406	187.890625
66999.564237	0.717278	146.191406	187.890625
66999.566238	0.772944	146.191406	187.890625
66999.568237	0.770121	8.471335	0.745338
67000.664304	0.483286	180.761719	-166.894531
67000.666305	0.737527	180.761719	-166.894531
67000.668304	0.773214	180.761719	-166.894531
67000.670306	0.770570	8.476272	0.579864
67001.658270	1.976125	141.210937	190.039062
67001.660274	0.575975	141.210937	190.039062
67001.662274	0.768557	141.210937	190.039062
67001.664273	0.772194	141.210937	190.039062
67001.666273	0.769951	8.469457	0.716090
67002.748292	0.773894	177.929687	-155.371094
67002.750295	0.771189	177.929687	-155.371094
67002.752294	0.769348	8.462828	0.656183
67003.744291	0.452208	148.242187	177.050781
67003.746292	0.720761	148.242187	177.050781
67003.748293	0.773989	148.242187	177.050781
67003.750292	0.771159	8.482750	0.695030
67004.832813	0.301407	176.562500	-150.488281
67004.834816	0.598565	176.562500	-150.488281
67004.836815	0.771414	176.562500	-150.488281
67004.838814	0.771930	8.491231	0.662751
67005.844895	0.356993	146.777344	179.687500
67005.846894	0.650147	146.777344	179.687500
67005.848896	0.774855	146.777344	179.687500
67005.850897	0.772365	8.496017	0.614445
67006.901847	0.382041	164.160156	-155.468750
67006.903849	0.671595	164.160156	-155.468750
67006.905848	0.776736	164.160156	-155.468750
67006.907848	0.774046	8.514503	0.738914
67007.941852	0.324872	144.628906	185.937500
67007.943855	0.620990	144.628906	185.937500
67007.945853	0.773865	144.628906	185.937500
67007.947859	0.772556	8.498117	0.665176
67008.987886	0.555483	144.042969	-154.980469
67008.989888	0.764022	144.042969	-154.980469
67008.991888	0.772056	144.042969	-154.980469
67008.993886	0.769793	8.467728	0.821860
67010.041945	0.729192	148.535156	187.695312
67010.043947	0.773114	148.535156	187.695312
67010.045949	0.770355	8.473906	0.620605
67011.068557	0.541301	143.359375	-161.621094
67011.070557	0.759984	143.359375	-161.621094
67011.072559	0.771734	143.359375	-161.621094
67011.074557	0.769467	8.464139	0.777803
67012.133111	0.483440	145.507812	196.972656
67012.135111	0.737535	145.507812	196.972656
67012.137112	0.773106	145.507812	196.972656
67012.139111	0.770458	8.475039	0.627832
67013.157135	0.487486	124.316406	-161.425781
67013.159139	0.739807	124.316406	-161.425781
67013.161137	0.773508	124.316406	-161.425781
67013.163137	0.770930	8.480233	0.721173
67014.221197	0.354880	143.652344	203.906250
67014.223199	0.648304	143.652344	203.906250
67014.225200	0.774909	143.652344	203.906250
67014.227201	0.772471	8.497187	0.619708
67015.241248	0.376410	120.703125	-166.015625
67015.243251	0.666658	120.703125	-166.015625
67015.245250	0.774744	120.703125	-166.015625
67015.247249	0.771912	8.491036	0.677340
67016.307298	0.536889	144.140625	205.761719
67016.309301	0.759124	144.140625	205.761719
67016.311301	0.772434	144.140625	205.761719
67016.315302	0.768550	8.454054	0.749360
67017.335298	0.523549	117.285156	-165.429687
67017.337301	0.754135	117.285156	-165.429687
67017.339301	0.771808	117.285156	-165.429687
67017.341300	0.771704	8.488750	0.662271
67018.397353	0.687517	140.625000	212.792969
67018.399353	0.773437	140.625000	212.792969
67018.401352	0.770481	8.475287	0.689796
67019.427388	0.774228	121.875000	-168.554687
67019.429390	0.771235	121.875000	-168.554687
67019.431390	0.769388	8.463270	0.659012
67020.479904	1.870390	140.722656	212.597656
67020.481905	0.650369	140.722656	212.597656
67020.485904	0.771649	140.722656	212.597656
67020.487907	0.769704	8.466744	0.692641
67021.509908	0.637644	122.753906	-168.750000
67021.511909	0.773417	122.753906	-168.750000
67021.513911	0.771244	8.483689	0.676803
67022.573958	0.504592	139.746094	214.062500
67022.575960	0.747158	139.746094	214.062500
67022.577959	0.772521	139.746094	214.062500
67022.579960	0.770036	8.470396	0.647965
67023.599986	0.748845	113.183594	-163.183594
67023.601989	0.772235	113.183594	-163.183594
67023.603991	0.769766	8.467427	0.653817
67024.658015	0.385321	139.062500	214.453125
67024.660017	0.673837	139.062500	214.453125
67024.662016	0.774650	139.062500	214.453125
67024.664016	0.771760	8.489361	0.684268
67025.682030	0.388328	123.437500	-164.453125
67025.684030	0.676190	123.437500	-164.453125
67025.686031	0.774790	123.437500	-164.453125
67025.688032	0.771826	8.490088	0.686690
67026.746088	0.248806	140.234375	210.351562
67026.750088	0.761962	140.234375	210.351562
67026.752090	0.771591	140.234375	210.351562
67026.754090	0.769374	8.463111	0.672143
67027.776095	0.535840	121.972656	-156.640625
67027.778098	0.758575	121.972656	-156.640625
67027.780098	0.772155	121.972656	-156.640625
67027.782097	0.769867	8.468534	0.753671
67028.836113	0.412772	138.964844	210.546875
67028.838114	0.694324	138.964844	210.546875
67028.840116	0.773135	138.964844	210.546875
67028.842114	0.770210	8.472310	0.646739
67029.860138	0.414826	123.925781	-151.171875
67029.862140	0.695684	123.925781	-151.171875
67029.864139	0.772838	123.925781	-151.171875
67029.866140	0.769988	8.469864	0.688500
67030.920186	0.292057	138.671875	205.371094
67030.924194	0.769542	138.671875	205.371094
67030.926196	0.770876	138.671875	205.371094
67030.928197	0.768801	8.456810	0.626010
67031.956222	0.766100	142.773437	-148.730469
67031.958224	0.771516	142.773437	-148.730469
67031.960224	0.769336	8.462694	0.842224
67033.006783	0.550707	141.406250	198.242187
67033.008782	0.762573	141.406250	198.242187
67033.010783	0.771703	141.406250	198.242187
67033.012784	0.769424	8.463660	0.760880
67034.045696	0.333964	154.882812	-143.164062
67034.047699	0.629238	154.882812	-143.164062
67034.049700	0.773643	154.882812	-143.164062
67034.053698	0.769880	8.468677	0.726671
67035.087714	0.575043	134.570312	204.394531
67035.089716	0.767287	134.570312	204.394531
67035.091715	0.770993	134.570312	204.394531
67035.093717	0.768941	8.458352	0.627926
67036.143765	0.772145	176.953125	-143.847656
67036.147766	0.767996	176.953125	-143.847656
67036.149766	0.766609	8.432695	0.689626
67037.175757	0.772710	130.957031	209.082031
67037.177760	0.769924	130.957031	209.082031
67037.179759	0.768320	8.451519	0.624055
67038.231801	0.330214	190.136719	-142.871094
67038.233803	0.625901	190.136719	-142.871094
67038.235803	0.773905	190.136719	-142.871094
67038.237803	0.772318	8.495494	0.700823
67039.247804	0.359481	131.054687	210.156250
67039.249804	0.652241	131.054687	210.156250
67039.253802	0.771078	131.054687	210.156250
67039.255806	0.769229	8.461515	0.685377
67040.329816	0.458418	177.246094	-138.183594
67040.331818	0.724020	177.246094	-138.183594
67040.333819	0.772910	177.246094	-138.183594
67040.335818	0.770233	8.472558	0.652290
67041.333846	0.533520	130.664062	215.039062
67041.335846	0.757680	130.664062	215.039062
67041.339844	0.769657	130.664062	215.039062
67041.341847	0.768193	8.450128	0.759001
67042.419870	0.618809	167.480469	-141.601562
67042.421872	0.772809	167.480469	-141.601562
67042.423872	0.771584	8.487429	0.604387
67043.417862	0.409656	128.906250	223.828125
67043.419864	0.692370	128.906250	223.828125
67043.423862	0.771097	128.906250	223.828125
67043.425862	0.769381	8.463191	0.734538
67044.507893	0.480699	152.832031	-146.679687
67044.509893	0.736189	152.832031	-146.679687
67044.511894	0.773098	152.832031	-146.679687
67044.513893	0.770425	8.474676	0.570286
67045.509914	0.255547	131.445312	229.589844
67045.511918	0.554604	131.445312	229.589844
67045.513919	0.763923	131.445312	229.589844
67045.515916	0.772045	131.445312	229.589844
67045.517918	0.769783	8.467613	0.748592
67046.592000	0.774727	130.664062	-147.558594
67046.594001	0.771833	130.664062	-147.558594
67046.596002	0.769975	8.469723	0.577537
67047.604014	0.415272	129.882812	237.695312
67047.606016	0.696256	129.882812	237.695312
67047.608014	0.773450	129.882812	237.695312
67047.610015	0.770479	8.475270	0.750020
67048.668032	0.274019	121.972656	-151.660156
67048.670035	0.572208	121.972656	-151.660156
67048.672034	0.767907	121.972656	-151.660156
67048.674033	0.772339	121.972656	-151.660156
67048.676034	0.770117	8.471291	0.586644
67049.696053	0.260323	134.375000	234.863281
67049.700055	0.764961	134.375000	234.863281
67049.702055	0.772235	134.375000	234.863281
67049.704055	0.770002	8.470023	0.766874
67050.756083	0.720109	114.746094	-153.515625
67050.758086	0.773159	114.746094	-153.515625
67050.760085	0.770365	8.474020	0.569666
67051.790640	0.491269	137.597656	230.957031
67051.792642	0.741210	137.597656	230.957031
67051.794643	0.772837	137.597656	230.957031
67051.796643	0.770233	8.472568	0.736120
67052.834650	0.421323	114.062500	-153.027344
67052.836652	0.700664	114.062500	-153.027344
67052.838653	0.774005	114.062500	-153.027344
67052.840653	0.770986	8.480844	0.610710
67053.885156	0.694343	137.304687	229.980469
67053.887158	0.774131	137.304687	229.980469
67053.889159	0.771081	8.481890	0.705631
67054.919164	0.370668	108.789062	-147.656250
67054.921165	0.662076	108.789062	-147.656250
67054.923165	0.775168	108.789062	-147.656250
67054.925165	0.772397	8.496363	0.638075
67055.977188	0.554834	131.250000	237.500000
67055.979188	0.764051	131.250000	237.500000
67055.981190	0.772211	131.250000	237.500000
67055.983190	0.769955	8.469509	0.686768
67057.005203	0.542325	110.937500	-145.019531
67057.007206	0.760631	110.937500	-145.019531
67057.009206	0.772364	110.937500	-145.019531
67057.011206	0.770087	8.470955	0.725694
67058.067219	0.698964	131.445312	236.718750
67058.069221	0.773798	131.445312	236.718750
67058.071222	0.770807	8.478877	0.649215
67059.089231	0.421194	115.625000	-143.359375
67059.091232	0.700366	115.625000	-143.359375
67059.093234	0.773301	115.625000	-143.359375
67059.097231	0.768663	8.455295	0.663570
67060.149259	0.295965	131.738281	234.082031
67060.151268	0.593438	131.738281	234.082031
67060.153267	0.771861	131.738281	234.082031
67060.155267	0.772921	8.502132	0.685109
67061.178220	0.424608	126.855469	-143.652344
67061.180219	0.702756	126.855469	-143.652344
67061.182219	0.773432	126.855469	-143.652344
67061.184218	0.770427	8.474694	0.642345
67062.239199	0.443213	134.375000	231.347656
67062.241202	0.714757	134.375000	231.347656
67062.243200	0.772911	134.375000	231.347656
67062.245199	0.770130	8.471433	0.666209
67063.267230	0.433698	110.937500	-138.281250
67063.269232	0.708895	110.937500	-138.281250
67063.271232	0.773396	110.937500	-138.281250
67063.275231	0.768780	8.456579	0.643619
67064.327253	0.306928	131.738281	234.960937
67064.329254	0.603905	131.738281	234.960937
67064.331254	0.772250	131.738281	234.960937
67064.335255	0.770129	8.471415	0.661905
67065.351242	0.305823	117.089844	-138.964844
67065.353243	0.602853	117.089844	-138.964844
67065.355244	0.772116	117.089844	-138.964844
67065.357244	0.772107	8.493172	0.684490
67066.417275	0.465389	130.468750	239.648437
67066.419276	0.727873	130.468750	239.648437
67066.421276	0.772845	130.468750	239.648437
67066.425274	0.768454	8.452999	0.647064
67067.445323	0.459757	104.101562	-138.085937
67067.447325	0.724886	104.101562	-138.085937
67067.449326	0.773287	104.101562	-138.085937
67067.451326	0.770488	8.475368	0.629528
67068.501329	0.345250	128.417969	244.726562
67068.503330	0.639746	128.417969	244.726562
67068.505330	0.774297	128.417969	244.726562
67068.507331	0.772205	8.494253	0.684537
67069.532262	0.730567	119.726562	-144.433594
67069.534264	0.773187	119.726562	-144.433594
67069.536265	0.770520	8.475722	0.629333
67070.586788	0.434531	128.808594	245.019531
67070.588790	0.709563	128.808594	245.019531
67070.590790	0.773456	128.808594	245.019531
67070.592789	0.770523	8.475758	0.692564
67071.622797	0.392864	119.433594	-145.800781
67071.624800	0.679536	119.433594	-145.800781
67071.626798	0.773413	119.433594	-145.800781
67071.628798	0.770440	8.474836	0.628941
67072.677753	0.710205	125.195312	252.148437
67072.679760	0.773805	125.195312	252.148437
67072.681759	0.770946	8.480411	0.703696
67073.712233	1.037053	101.464844	-140.429687
67073.714235	0.725584	101.464844	-140.429687
67073.716236	0.772940	101.464844	-140.429687
67073.722235	0.767273	8.439998	0.629514
67074.758266	0.681634	130.566406	245.019531
67074.760270	0.774442	130.566406	245.019531
67074.762271	0.771469	8.486161	0.690043
67075.800245	0.320083	120.898437	-144.628906
67075.802247	0.616503	120.898437	-144.628906
67075.804249	0.773538	120.898437	-144.628906
67075.806247	0.772632	8.498950	0.607164
67076.836259	0.277766	129.003906	248.437500
67076.838260	0.575844	129.003906	248.437500
67076.840261	0.769325	129.003906	248.437500
67076.844260	0.770857	129.003906	248.437500
67076.846260	0.769419	8.463607	0.712800
67077.893194	0.303312	131.640625	-142.871094
67077.895193	0.600399	131.640625	-142.871094
67077.899191	0.771774	131.640625	-142.871094
67077.903192	0.768218	8.450402	0.583331
67078.919758	0.676845	126.855469	249.511719
67078.921760	0.774728	126.855469	249.511719
67078.923761	0.771775	8.489520	0.717958
67079.992330	0.598615	145.605469	-138.476562
67079.994329	0.606924	145.605469	-138.476562
67079.996329	0.772155	8.493704	0.571122
67081.002859	0.424971	121.777344	253.417969
67081.004860	0.702977	121.777344	253.417969
67081.006861	0.773178	121.777344	253.417969
67081.008862	0.770227	8.472496	0.714926
67082.084899	0.527516	149.804687	-129.003906
67082.086903	0.755702	149.804687	-129.003906
67082.088903	0.772147	149.804687	-129.003906
67082.090903	0.769745	8.467196	0.580406
67083.082914	0.317127	123.535156	245.117187
67083.084918	0.613581	123.535156	245.117187
67083.086916	0.772969	123.535156	245.117187
67083.088916	0.772025	8.492277	0.718599
67084.172965	0.395281	170.605469	-126.269531
67084.174968	0.681690	170.605469	-126.269531
67084.178965	0.771090	170.605469	-126.269531
67084.180967	0.769314	8.462455	0.598707
67085.172995	0.481603	125.292969	236.230469
67085.178995	0.770128	125.292969	236.230469
67085.180998	0.768553	125.292969	236.230469
67085.182997	0.767262	8.439883	0.683070
67086.257945	0.412966	182.617187	-122.167969
67086.259948	0.694635	182.617187	-122.167969
67086.261948	0.773622	182.617187	-122.167969
67086.263948	0.770678	8.477459	0.632336
67087.261967	0.487091	121.289062	238.671875
67087.263969	0.739235	121.289062	238.671875
67087.265967	0.772672	121.289062	238.671875
67087.267968	0.770146	8.471601	0.655463
67088.342008	0.291592	189.746094	-122.070312
67088.346012	0.770389	189.746094	-122.070312
67088.348015	0.771798	189.746094	-122.070312
67088.350014	0.769670	8.466372	0.645484
67089.356026	0.631989	121.875000	236.230469
67089.358029	0.773409	121.875000	236.230469
67089.360029	0.771518	8.486703	0.645214
67090.424496	0.546438	178.808594	-119.726562
67090.426497	0.762182	178.808594	-119.726562
67090.428499	0.772610	178.808594	-119.726562
67090.430500	0.770347	8.473816	0.743361
67091.447029	0.327430	125.097656	233.789062
67091.449030	0.623349	125.097656	233.789062
67091.451029	0.773993	125.097656	233.789062
67091.453028	0.772586	8.498446	0.621370
67092.505042	0.515628	177.929687	-120.703125
67092.507043	0.751476	177.929687	-120.703125
67092.511043	0.769802	177.929687	-120.703125
67092.513044	0.768337	8.451705	0.680789
67093.541061	0.475832	125.390625	236.328125
67093.545058	0.773651	125.390625	236.328125
67093.547062	0.770894	125.390625	236.328125
67093.549060	0.770834	8.479170	0.636484
67094.589084	0.394583	163.281250	-121.191406
67094.591087	0.680985	163.281250	-121.191406
67094.593087	0.773937	163.281250	-121.191406
67094.595086	0.773870	8.512571	0.632718
67095.635095	0.619105	129.199219	232.128906
67095.637098	0.773334	129.199219	232.128906
67095.639097	0.772046	8.492507	0.963438
67096.669100	0.278606	141.015625	-120.312500
67096.671102	0.328106	141.015625	-120.312500
67096.673103	0.768590	141.015625	-120.312500
67096.675103	0.772136	141.015625	-120.312500
67096.677103	0.769912	8.469030	0.686452
67097.727129	0.469605	127.636719	237.011719
67097.729131	0.730305	127.636719	237.011719
67097.731129	0.773009	127.636719	237.011719
67097.733130	0.770287	8.473161	0.588046
67098.755147	0.457871	142.578125	-124.023437
67098.759146	0.773151	142.578125	-124.023437
67098.761148	0.770431	142.578125	-124.023437
67098.763149	0.768835	8.457182	0.687394
67099.815654	0.404915	123.437500	246.484375
67099.817654	0.688962	123.437500	246.484375
67099.819654	0.774332	123.437500	246.484375
67099.821654	0.771310	8.484407	0.616854
67100.847627	0.773827	130.273437	-124.511719
67100.849630	0.770947	130.273437	-124.511719
67100.851630	0.769150	8.460648	0.651561
67101.902175	0.647440	128.222656	240.820312
67101.904178	0.774777	128.222656	240.820312
67101.906179	0.772264	8.494908	0.641560
67102.933109	0.463742	132.128906	-126.367187
67102.935111	0.727131	132.128906	-126.367187
67102.937113	0.773136	132.128906	-126.367187
67102.939110	0.770327	8.473596	0.608575
67103.989118	0.351353	123.632812	250.390625
67103.991122	0.645231	123.632812	250.390625
67103.993124	0.774846	123.632812	250.390625
67103.995122	0.772405	8.496450	0.632338
67105.019144	0.635095	125.878906	-125.097656
67105.023147	0.772153	125.878906	-125.097656
67105.025151	0.770076	8.470839	0.642251
67106.073657	0.301635	127.539062	242.675781
67106.075661	0.598804	127.539062	242.675781
67106.077661	0.772173	127.539062	242.675781
67106.079662	0.772618	8.498799	0.640941
67107.107652	0.567012	115.527344	-121.386719
67107.109653	0.767169	115.527344	-121.386719
67107.111652	0.772651	115.527344	-121.386719
67107.113651	0.770320	8.473524	0.801352
67108.167683	0.775407	120.800781	254.492187
67108.169685	0.772799	8.500793	0.617490
67109.192148	0.513767	128.906250	-121.679687
67109.194149	0.751009	128.906250	-121.679687
67109.196149	0.772682	128.906250	-121.679687
67109.198149	0.770266	8.472921	0.641055
67110.252210	0.397843	125.585937	246.093750
67110.254210	0.683664	125.585937	246.093750
67110.256211	0.774396	125.585937	246.093750
67110.258212	0.771388	8.485267	0.614334
67111.282219	0.672178	142.480469	-120.996094
67111.284222	0.774436	142.480469	-120.996094
67111.286222	0.771511	8.486623	0.646173
67112.336758	0.350785	125.390625	244.335937
67112.338761	0.644882	125.390625	244.335937
67112.340761	0.776470	125.390625	244.335937
67112.342760	0.774356	8.517916	0.624911
67113.375706	0.717945	132.714844	-114.941406
67113.377705	0.773505	132.714844	-114.941406
67113.381705	0.768982	8.458804	0.624384
67114.421772	0.373402	121.386719	250.390625
67114.423773	0.664207	121.386719	250.390625
67114.425771	0.774998	121.386719	250.390625
67114.427773	0.772315	8.495467	0.626037
67115.463813	0.616772	139.648437	-110.937500
67115.465815	0.773177	139.648437	-110.937500
67115.469813	0.770054	8.470591	0.648306
67116.503841	0.564687	120.703125	248.828125
67116.505842	0.766514	120.703125	248.828125
67116.507844	0.772604	120.703125	248.828125
67116.509843	0.770316	8.473480	0.804847
67117.551876	0.485546	165.722656	-112.304687
67117.553878	0.738510	165.722656	-112.304687
67117.555878	0.772625	165.722656	-112.304687
67117.557879	0.770092	8.471016	0.655192
67118.587893	0.446576	118.261719	249.414062
67118.589896	0.717224	118.261719	249.414062
67118.591896	0.773602	118.261719	249.414062
67118.593895	0.770762	8.478381	0.607389
67119.645925	0.631435	180.859375	-113.183594
67119.647926	0.774143	180.859375	-113.183594
67119.649926	0.772258	8.494838	0.634044
67120.668466	0.417171	118.652344	244.824219
67120.670468	0.697595	118.652344	244.824219
67120.672468	0.773465	118.652344	244.824219
67120.674468	0.770533	8.475864	0.614574
67121.739019	0.636025	188.183594	-114.648437
67121.741021	0.773672	188.183594	-114.648437
67121.743022	0.771550	8.487048	0.624455
67122.749545	0.461251	113.281250	254.589844
67122.751545	0.725879	113.281250	254.589844
67122.753544	0.773392	113.281250	254.589844
67122.755546	0.773264	8.505907	0.644563
67123.826403	0.405085	196.289062	-115.527344
67123.828405	0.689128	196.289062	-115.527344
67123.830404	0.774490	196.289062	-115.527344
67123.832404	0.771528	8.486809	0.634362
67124.833332	0.301581	117.285156	253.125000
67124.835335	0.598918	117.285156	253.125000
67124.837336	0.771820	117.285156	253.125000
67124.839335	0.772217	8.494386	0.665070
67125.924295	0.772717	186.718750	-116.406250
67125.926297	0.770294	186.718750	-116.406250
67125.928297	0.768767	8.456438	0.606002
67126.918808	0.395155	114.355469	263.378906
67126.920811	0.681619	114.355469	263.378906
67126.922812	0.774387	114.355469	263.378906
67126.924812	0.771443	8.485869	0.672029
67128.004816	0.478588	169.824219	-117.968750
67128.006818	0.734954	169.824219	-117.968750
67128.008817	0.772853	169.824219	-117.968750
67128.010818	0.770172	8.471893	0.591352
67129.008809	0.547232	112.695312	271.777344
67129.010810	0.762442	112.695312	271.777344
67129.014808	0.770358	112.695312	271.777344
67129.016809	0.768832	8.457155	0.767154
67130.092891	0.347121	147.070312	-118.847656
67130.094893	0.641496	147.070312	-118.847656
67130.096894	0.774387	147.070312	-118.847656
67130.098893	0.772125	8.493376	0.552773
67131.100920	0.773952	111.328125	279.101562
67131.102922	0.771024	8.481261	0.680733
67132.173815	0.371089	150.097656	-125.195312
67132.175817	0.662873	150.097656	-125.195312
67132.177818	0.778839	150.097656	-125.195312
67132.179817	0.776017	8.536190	0.571792
67133.189832	0.401790	113.281250	282.617187
67133.191831	0.686669	113.281250	282.617187
67133.193832	0.774567	113.281250	282.617187
67133.197831	0.769706	8.466771	0.685135
67134.259846	0.539240	118.554687	-122.070312
67134.261848	0.759761	118.554687	-122.070312
67134.263848	0.772213	118.554687	-122.070312
67134.265847	0.769868	8.468544	0.621337
67135.281847	0.763898	114.941406	283.300781
67135.283850	0.772227	114.941406	283.300781
67135.285850	0.769937	8.469305	0.807468
67136.339918	0.437093	106.054687	-121.582031
67136.341918	0.711125	106.054687	-121.582031
67136.343919	0.773405	106.054687	-121.582031
67136.345919	0.770531	8.475846	0.573231
67137.371960	0.414771	118.750000	279.589844
67137.373963	0.696123	118.750000	279.589844
67137.375962	0.773757	118.750000	279.589844
67137.377961	0.770709	8.477797	0.695373
67138.426478	0.680042	114.062500	-124.414062
67138.428480	0.774556	114.062500	-124.414062
67138.432479	0.769740	8.467143	0.550680
67139.463003	0.705754	115.332031	286.132812
67139.465003	0.773873	115.332031	286.132812
67139.467004	0.770966	8.480622	0.689823
67140.511056	0.644836	111.914062	-123.242187
67140.515055	0.771618	111.914062	-123.242187
67140.517057	0.769614	8.465752	0.559761
67141.549564	0.369337	117.871094	282.226562
67141.551566	0.660835	117.871094	282.226562
67141.553566	0.774656	117.871094	282.226562
67141.555566	0.771935	8.491284	0.688265
67142.595564	0.593957	123.535156	-124.414062
67142.597564	0.771928	123.535156	-124.414062
67142.599566	0.773030	8.503328	0.577362
67143.639542	0.520248	119.628906	278.027344
67143.641543	0.753285	119.628906	278.027344
67143.643544	0.772534	119.628906	278.027344
67143.645542	0.770100	8.471105	0.680567
67144.680056	0.537541	102.148437	-119.531250
67144.682059	0.759375	102.148437	-119.531250
67144.684058	0.772491	102.148437	-119.531250
67144.686059	0.770150	8.471654	0.656116
67145.732098	0.773080	119.335937	279.296875
67145.734098	0.770313	119.335937	279.296875
67145.736100	0.768728	8.456003	0.649781
67146.768653	0.485702	96.582031	-117.675781
67146.770655	0.738782	96.582031	-117.675781
67146.772655	0.773059	96.582031	-117.675781
67146.774654	0.770528	8.475811	0.565905
67147.816683	0.405729	117.285156	283.691406
67147.818686	0.689964	117.285156	283.691406
67147.820684	0.775777	117.285156	283.691406
67147.822685	0.772879	8.501671	0.649361
67148.852667	0.358104	100.000000	-117.578125
67148.854668	0.651182	100.000000	-117.578125
67148.856667	0.774902	100.000000	-117.578125
67148.858667	0.772455	8.497000	0.599123
67149.900663	0.272052	118.066406	283.300781
67149.902666	0.570427	118.066406	283.300781
67149.904664	0.576055	118.066406	283.300781
67149.906664	0.773757	118.066406	283.300781
67149.908668	0.771351	8.484859	0.670387
67150.942659	0.511772	96.777344	-116.796875
67150.944661	0.750623	96.777344	-116.796875
67150.946660	0.773537	96.777344	-116.796875
67150.948661	0.771013	8.481146	0.565732
67151.986654	0.440340	114.746094	290.917969
67151.988657	0.713147	114.746094	290.917969
67151.990658	0.773342	114.746094	290.917969
67151.992657	0.770511	8.475625	0.684178
67153.030662	0.372186	110.742187	-118.750000
67153.032663	0.663227	110.742187	-118.750000
67153.034665	0.774780	110.742187	-118.750000
67153.036664	0.771904	8.490947	0.569891
67154.074667	0.299958	114.257812	293.261719
67154.076670	0.597215	114.257812	293.261719
67154.078671	0.771592	114.257812	293.261719
67154.080670	0.772277	8.495050	0.659310
67155.120670	0.526932	109.765625	-117.968750
67155.124669	0.772483	109.765625	-117.968750
67155.126671	0.770159	109.765625	-117.968750
67155.128672	0.768640	8.455037	0.595989
67156.162697	0.733443	111.523437	300.488281
67156.164700	0.773258	111.523437	300.488281
67156.166699	0.770559	8.476147	0.643068
67157.213603	0.508895	121.777344	-117.382812
67157.215606	0.749356	121.777344	-117.382812
67157.217605	0.773168	121.777344	-117.382812
67157.219605	0.770648	8.477131	0.530467
67158.240118	0.271643	115.234375	293.164062
67158.244118	0.767633	115.234375	293.164062
67158.246121	0.772503	115.234375	293.164062
67158.248121	0.770258	8.472833	0.676554
67159.302117	0.443757	120.312500	-114.062500
67159.304121	0.715518	120.312500	-114.062500
67159.306121	0.773929	120.312500	-114.062500
67159.308121	0.771128	8.482404	0.549832
67160.326095	0.440114	111.230469	298.046875
67160.328096	0.713063	111.230469	298.046875
67160.330096	0.773728	111.230469	298.046875
67160.332096	0.770904	8.479949	0.656431
67161.396120	0.581325	149.609375	-116.503906
67161.398122	0.769663	149.609375	-116.503906
67161.402120	0.770296	149.609375	-116.503906
67161.404123	0.768899	8.457891	0.780313
67162.406116	0.327913	112.792969	291.796875
67162.408120	0.623777	112.792969	291.796875
67162.410117	0.773674	112.792969	291.796875
67162.412116	0.772231	8.494545	0.670842
67163.484127	0.442864	166.699219	-113.964844
67163.486130	0.714957	166.699219	-113.964844
67163.488132	0.773846	166.699219	-113.964844
67163.490132	0.771023	8.481252	0.560499
67164.494163	0.746759	113.085937	286.816406
67164.496164	0.773213	113.085937	286.816406
67164.498165	0.770679	8.477468	0.646879
67165.578740	0.665904	177.636719	-109.472656
67165.580742	0.774080	177.636719	-109.472656
67165.584739	0.769347	8.462818	0.554022
67166.575646	0.297072	111.230469	284.960937
67166.577647	0.594479	111.230469	284.960937
67166.579647	0.770888	111.230469	284.960937
67166.581646	0.771762	8.489379	0.649739
67167.663689	0.677139	187.890625	-105.957031
67167.665689	0.774695	187.890625	-105.957031
67167.667689	0.771716	8.488874	0.586070
67168.666233	0.540234	110.839844	282.128906
67168.668231	0.760350	110.839844	282.128906
67168.670232	0.772803	110.839844	282.128906
67168.672229	0.770440	8.474836	0.690440
67169.746273	0.347674	190.332031	-101.269531
67169.748274	0.641976	190.332031	-101.269531
67169.750274	0.774309	190.332031	-101.269531
67169.752274	0.772056	8.492614	0.620364
67170.756273	0.689611	111.523437	277.246094
67170.760272	0.771854	111.523437	277.246094
67170.762274	0.769986	8.469847	0.615541
67171.834296	0.753702	182.421875	-97.363281
67171.836299	0.773257	182.421875	-97.363281
67171.838298	0.770819	8.479010	0.611504
67172.846780	0.321037	109.472656	279.980469
67172.848782	0.617432	109.472656	279.980469
67172.850781	0.773914	109.472656	279.980469
67172.852781	0.772955	8.502503	0.597828
67173.916788	0.465417	194.335937	-99.023437
67173.918791	0.728205	194.335937	-99.023437
67173.920791	0.773248	194.335937	-99.023437
67173.922791	0.770494	8.475430	0.613937
67174.937351	0.560836	110.742187	278.320312
67174.939352	0.765882	110.742187	278.320312
67174.941354	0.772871	110.742187	278.320312
67174.945352	0.769040	8.459442	0.589787
67175.997356	0.434489	193.066406	-99.121094
67175.999359	0.709655	193.066406	-99.121094
67176.001359	0.773988	193.066406	-99.121094
67176.003358	0.771086	8.481943	0.632152
67177.031924	0.741296	111.328125	279.492187
67177.033928	0.773517	111.328125	279.492187
67177.035927	0.770930	8.480233	0.575151
67178.083946	0.680485	184.960937	-98.339844
67178.085948	0.774281	184.960937	-98.339844
67178.087947	0.771290	8.484195	0.609179
67179.118479	0.429810	117.578125	271.289062
67179.120479	0.706249	117.578125	271.289062
67179.122480	0.772994	117.578125	271.289062
67179.124480	0.770131	8.471441	0.590420
67180.167418	0.485466	154.882812	-94.824219
67180.169418	0.738683	154.882812	-94.824219
67180.171417	0.773251	154.882812	-94.824219
67180.173417	0.770671	8.477379	0.613580
67181.207449	0.433710	113.769531	280.371094
67181.209450	0.709101	113.769531	280.371094
67181.211451	0.773809	113.769531	280.371094
67181.213456	0.770918	8.480100	0.585639
67182.251492	0.367886	159.667969	-97.265625
67182.253493	0.659564	159.667969	-97.265625
67182.255494	0.774719	159.667969	-97.265625
67182.257493	0.771947	8.491417	0.598342
67183.295551	0.304121	114.355469	280.664062
67183.297551	0.601367	114.355469	280.664062
67183.299550	0.772091	114.355469	280.664062
67183.301553	0.772256	8.494820	0.598134
67184.337552	0.544850	142.578125	-95.898437
67184.339554	0.762087	142.578125	-95.898437
67184.341554	0.773288	142.578125	-95.898437
67184.345554	0.769412	8.463528	0.688809
67185.385603	0.465115	115.234375	280.078125
67185.387604	0.728049	115.234375	280.078125
67185.389603	0.773478	115.234375	280.078125
67185.393602	0.769080	8.459885	0.594401
67186.423589	0.700112	162.597656	-100.000000
67186.425589	0.773755	162.597656	-100.000000
67186.427590	0.770724	8.477964	0.596611
67187.476134	0.687429	111.914062	288.183594
67187.478137	0.775510	111.914062	288.183594
67187.480136	0.772509	8.497603	0.569228
67188.510589	0.427120	147.558594	-97.070312
67188.512590	0.704589	147.558594	-97.070312
67188.514590	0.773613	147.558594	-97.070312
67188.516590	0.770705	8.477752	0.589882
67189.558617	0.344958	114.453125	283.789062
67189.560619	0.639625	114.453125	283.789062
67189.562620	0.775170	114.453125	283.789062
67189.564618	0.773088	8.503966	0.593926
67190.594588	0.296018	140.429687	-95.214844
67190.596595	0.593467	140.429687	-95.214844
67190.598597	0.771136	140.429687	-95.214844
67190.600596	0.772086	8.492950	0.616225
67191.649471	0.624816	116.113281	281.250000
67191.651472	0.773903	116.113281	281.250000
67191.653472	0.772443	8.496876	0.573262
67192.683996	0.365185	157.128906	-96.093750
67192.686001	0.657332	157.128906	-96.093750
67192.688007	0.774686	157.128906	-96.093750
67192.690004	0.771964	8.491604	0.593166
67193.734034	0.578279	115.136719	282.910156
67193.736035	0.768934	115.136719	282.910156
67193.738036	0.772289	115.136719	282.910156
67193.740037	0.770042	8.470458	0.787354
67194.776574	0.771604	149.023437	-92.968750
67194.780575	0.769533	8.464866	0.591250
67195.818637	0.540882	116.210937	279.980469
67195.820638	0.760229	116.210937	279.980469
67195.822638	0.772261	116.210937	279.980469
67195.824637	0.769958	8.469536	0.650249
67196.862618	0.470338	177.343750	-95.019531
67196.864621	0.730964	177.343750	-95.019531
67196.866622	0.773514	177.343750	-95.019531
67196.868621	0.770830	8.479125	0.595943
67197.903157	0.492866	114.257812	281.738281
67197.905159	0.742204	114.257812	281.738281
67197.907160	0.773094	114.257812	281.738281
67197.909158	0.770523	8.475758	0.588439
67198.951660	0.480427	191.503906	-95.019531
67198.953661	0.736230	191.503906	-95.019531
67198.955662	0.773330	191.503906	-95.019531
67198.957662	0.773138	8.504516	0.589154
67199.987659	0.438051	109.667969	288.769531
67199.989657	0.712076	109.667969	288.769531
67199.991659	0.774126	109.667969	288.769531
67199.993658	0.771248	8.483725	0.582705
67201.039650	0.337404	189.843750	-92.773437
67201.041652	0.632676	189.843750	-92.773437
67201.043652	0.774577	189.843750	-92.773437
67201.045651	0.772604	8.498650	0.597157
67202.069675	0.622715	112.988281	284.277344
67202.071677	0.772861	112.988281	284.277344
67202.073677	0.771395	8.485347	0.591573
67203.128222	0.277993	196.289062	-91.308594
67203.130224	0.576077	196.289062	-91.308594
67203.132224	0.768995	196.289062	-91.308594
67203.134226	0.772931	196.289062	-91.308594
67203.136224	0.770589	8.476476	0.628852
67204.152221	0.276535	108.593750	291.796875
67204.154222	0.574712	108.593750	291.796875
67204.156223	0.768257	108.593750	291.796875
67204.158222	0.772075	108.593750	291.796875
67204.160222	0.769888	8.468765	0.570103
67205.222241	0.422220	191.699219	-91.308594
67205.224241	0.701190	191.699219	-91.308594
67205.226242	0.773578	191.699219	-91.308594
67205.228240	0.770726	8.477991	0.581853
67206.238291	0.460332	111.523437	288.867187
67206.240294	0.469536	111.523437	288.867187
67206.242293	0.773902	111.523437	288.867187
67206.244295	0.771080	8.481881	0.569551
67207.312335	0.588036	189.941406	-91.992187
67207.314335	0.770628	189.941406	-91.992187
67207.316336	0.772016	189.941406	-91.992187
67207.320335	0.768434	8.452768	0.587083
67208.324384	0.639265	109.765625	294.042969
67208.326385	0.774068	109.765625	294.042969
67208.328385	0.771920	8.491116	1.014078
67209.400390	0.458590	194.140625	-95.214844
67209.402393	0.724226	194.140625	-95.214844
67209.404393	0.773195	194.140625	-95.214844
67209.406393	0.770417	8.474587	0.574844
67210.408426	0.517832	107.128906	302.832031
67210.412426	0.772475	107.128906	302.832031
67210.414428	0.770064	107.128906	302.832031
67210.416428	0.768537	8.453903	0.592100
67211.488461	0.325137	179.492187	-95.996094
67211.490463	0.621157	179.492187	-95.996094
67211.492465	0.773028	179.492187	-95.996094
67211.494464	0.771593	8.487527	0.563530
67212.492471	0.398229	105.859375	309.472656
67212.496470	0.774408	105.859375	309.472656
67212.498472	0.771493	105.859375	309.472656
67212.500472	0.769676	8.466434	0.607640
67213.576465	0.742958	164.062500	-97.070312
67213.578465	0.772927	164.062500	-97.070312
67213.580467	0.770389	8.474277	0.546602
67214.582937	0.620677	107.910156	311.914062
67214.584939	0.773429	107.910156	311.914062
67214.586939	0.771949	8.491435	0.622579
67215.660985	0.716795	150.292969	-98.632812
67215.662986	0.774246	150.292969	-98.632812
67215.664986	0.771375	8.485125	0.543287
67216.669377	0.243916	109.667969	312.890625
67216.671379	0.544065	109.667969	312.890625
67216.673380	0.760945	109.667969	312.890625
67216.675381	0.772006	109.667969	312.890625
67216.677379	0.769709	8.466798	0.646347
67217.746306	0.750587	138.378906	-100.292969
67217.748310	0.773159	138.378906	-100.292969
67217.752307	0.769196	8.461152	0.528599
67218.758270	0.233925	110.253906	315.234375
67218.760272	0.534966	110.253906	315.234375
67218.762273	0.758663	110.253906	315.234375
67218.766271	0.770283	110.253906	315.234375
67218.768272	0.768790	8.456686	0.650949
67219.829202	0.516312	138.183594	-103.027344
67219.831203	0.751838	138.183594	-103.027344
67219.833202	0.772583	138.183594	-103.027344
67219.835203	0.770146	8.471601	0.529583
67220.853229	0.519027	104.980469	324.804687
67220.855232	0.753135	104.980469	324.804687
67220.857233	0.772857	104.980469	324.804687
67220.861230	0.768922	8.458139	0.613067
67221.913252	0.396906	119.726562	-101.757812
67221.915253	0.682920	119.726562	-101.757812
67221.917253	0.774410	119.726562	-101.757812
67221.921250	0.771317	8.484488	0.535335
67222.941264	0.384293	107.226562	321.484375
67222.943265	0.673314	107.226562	321.484375
67222.945266	0.775319	107.226562	321.484375
67222.947265	0.772503	8.497532	0.618582
67223.997339	0.278560	134.960937	-105.957031
67223.999342	0.576653	134.960937	-105.957031
67224.001341	0.769665	134.960937	-105.957031
67224.003342	0.773504	134.960937	-105.957031
67224.005341	0.771191	8.483096	0.519645
67225.029902	0.334858	104.394531	328.320312
67225.031902	0.630387	104.394531	328.320312
67225.033905	0.774431	104.394531	328.320312
67225.035904	0.772713	8.499846	0.633499
67226.082808	0.371295	121.875000	-104.101562
67226.084810	0.662519	121.875000	-104.101562
67226.086811	0.774996	121.875000	-104.101562
67226.088811	0.772257	8.494829	0.535021
67227.118809	2.490963	104.394531	328.320312
67227.120810	0.622272	104.394531	328.320312
67227.122811	0.774021	104.394531	328.320312
67227.124811	0.772749	8.500244	0.610804
67228.168860	0.546272	123.144531	-104.101562
67228.170860	0.762059	123.144531	-104.101562
67228.172861	0.772776	123.144531	-104.101562
67228.174862	0.770378	8.474162	0.639458
67229.204878	0.506653	109.082031	320.117187
67229.206881	0.747999	109.082031	320.117187
67229.208882	0.772660	109.082031	320.117187
67229.210880	0.770167	8.471831	0.637998
67230.257419	0.487432	133.691406	-105.761719
67230.259420	0.739384	133.691406	-105.761719
67230.261420	0.772693	133.691406	-105.761719
67230.263421	0.770125	8.471379	0.509887
67231.293441	0.446818	104.296875	325.683594
67231.295438	0.717454	104.296875	325.683594
67231.297439	0.773897	104.296875	325.683594
67231.299439	0.771049	8.481536	0.612025
67232.341431	0.361136	123.730469	-105.664062
67232.343432	0.653837	123.730469	-105.664062
67232.345430	0.774767	123.730469	-105.664062
67232.347433	0.772181	8.493987	0.537144
67233.379449	0.616343	107.421875	320.312500
67233.381452	0.772848	107.421875	320.312500
67233.383454	0.771730	8.489034	0.625740
67234.429993	0.299730	126.367187	-102.636719
67234.431995	0.597066	126.367187	-102.636719
67234.433993	0.771510	126.367187	-102.636719
67234.435995	0.772054	8.492596	0.520792
67235.464040	0.575991	108.886719	321.777344
67235.466041	0.768856	108.886719	321.777344
67235.468041	0.772612	108.886719	321.777344
67235.470041	0.770371	8.474083	0.816301
67236.518970	0.303776	123.730469	-101.464844
67236.520972	0.600972	123.730469	-101.464844
67236.522972	0.772182	123.730469	-101.464844
67236.524973	0.772447	8.496912	0.524456
67237.550989	0.276226	106.347656	325.878906
67237.552991	0.574385	106.347656	325.878906
67237.554990	0.768636	106.347656	325.878906
67237.556990	0.772839	106.347656	325.878906
67237.558992	0.770528	8.475811	0.599283
67238.609537	0.542628	122.460937	-99.804687
67238.611539	0.760941	122.460937	-99.804687
67238.613538	0.772505	122.460937	-99.804687
67238.615539	0.770245	8.472692	0.520144
67239.633573	0.545986	103.808594	330.566406
67239.635577	0.761896	103.808594	330.566406
67239.637577	0.772588	103.808594	330.566406
67239.639576	0.770200	8.472203	0.633013
67240.697577	0.407385	140.039062	-100.097656
67240.699580	0.691104	140.039062	-100.097656
67240.701585	0.775671	140.039062	-100.097656
67240.703588	0.772681	8.499491	0.523342
67241.719575	0.700375	107.128906	323.339844
67241.721577	0.773453	107.128906	323.339844
67241.723577	0.770443	8.474872	0.610027
67242.789566	0.764850	141.015625	-96.777344
67242.791568	0.772366	141.015625	-96.777344
67242.793569	0.770077	8.470847	0.679442
67243.804063	0.656490	105.175781	325.488281
67243.806066	0.773868	105.175781	325.488281
67243.808066	0.773855	8.512403	0.608594
67244.874643	0.274283	161.914062	-95.996094
67244.876646	0.572588	161.914062	-95.996094
67244.880643	0.772350	161.914062	-95.996094
67244.882645	0.770155	161.914062	-95.996094
67244.886643	0.767414	8.441549	0.549488
67245.886689	0.327015	104.199219	324.902344
67245.888689	0.622921	104.199219	324.902344
67245.890691	0.774038	104.199219	324.902344
67245.892690	0.772601	8.498613	0.602044
67246.964736	0.445693	172.363281	-93.066406
67246.966737	0.716595	172.363281	-93.066406
67246.968738	0.773577	172.363281	-93.066406
67246.970739	0.770767	8.478434	0.556610
67247.972771	0.506801	102.441406	323.828125
67247.974773	0.747965	102.441406	323.828125
67247.976773	0.772422	102.441406	323.828125
67247.978775	0.769932	8.469253	0.594023
67249.056797	0.772208	184.082031	-91.015625
67249.058799	0.771818	8.489999	0.542989
67250.056815	0.388077	103.222656	319.140625
67250.060816	0.774274	103.222656	319.140625
67250.062819	0.771348	103.222656	319.140625
67250.064818	0.769491	8.464396	0.594577
67251.142834	0.473220	192.480469	-88.183594
67251.144836	0.732435	192.480469	-88.183594
67251.146837	0.773197	192.480469	-88.183594
67251.148837	0.770505	8.475554	0.537408
67252.146880	0.548887	102.832031	316.796875
67252.148882	0.762379	102.832031	316.796875
67252.150882	0.772049	102.832031	316.796875
67252.152882	0.769740	8.467143	0.692979
67253.226911	0.355842	203.222656	-86.718750
67253.228913	0.649306	203.222656	-86.718750
67253.230913	0.775227	203.222656	-86.718750
67253.232914	0.772796	8.500758	0.554136
67254.234931	0.416572	104.492187	312.207031
67254.236936	0.697336	104.492187	312.207031
67254.238945	0.773685	104.492187	312.207031
67254.240949	0.770743	8.478177	0.568383
67255.314978	0.757837	212.597656	-86.035156
67255.316979	0.772868	212.597656	-86.035156
67255.318981	0.770476	8.475235	0.606646
67256.325541	0.656731	107.910156	305.664062
67256.327544	0.774255	107.910156	305.664062
67256.329544	0.771501	8.486516	0.569756
67257.393585	0.510258	219.628906	-85.644531
67257.395586	0.749569	219.628906	-85.644531
67257.397587	0.772558	219.628906	-85.644531
67257.399586	0.770094	8.471034	0.594304
67258.416131	0.291120	105.078125	310.937500
67258.418139	0.312254	105.078125	310.937500
67258.420144	0.770216	105.078125	310.937500
67258.422145	0.771682	105.078125	310.937500
67258.424143	0.769516	8.464670	0.556896
67259.478176	0.470261	200.195312	-83.007812
67259.480179	0.730687	200.195312	-83.007812
67259.482179	0.773044	200.195312	-83.007812
67259.484178	0.770392	8.474313	0.578684
67260.506212	2.885787	107.519531	307.617187
67260.508215	0.725824	107.519531	307.617187
67260.510214	0.773084	107.519531	307.617187
67260.512214	0.770345	8.473799	0.540339
67261.562765	0.428576	211.523437	-84.375000
67261.564766	0.705434	211.523437	-84.375000
67261.566766	0.773230	211.523437	-84.375000
67261.568767	0.770291	8.473196	0.573632
67262.595287	0.478614	104.785156	313.671875
67262.597287	0.735274	104.785156	313.671875
67262.599289	0.773450	104.785156	313.671875
67262.601286	0.770780	8.478576	0.551360
67263.649309	0.672224	197.558594	-83.007812
67263.651309	0.774343	197.558594	-83.007812
67263.653310	0.771376	8.485133	0.562505
67264.683314	0.338664	105.078125	314.160156
67264.685317	0.633772	105.078125	314.160156
67264.687317	0.774689	105.078125	314.160156
67264.689317	0.772813	8.500944	0.564418
67265.733367	0.558958	208.105469	-84.472656
67265.735371	0.568322	208.105469	-84.472656
67265.737372	0.772254	208.105469	-84.472656
67265.739372	0.769958	8.469536	0.714877
67266.773349	0.499871	109.472656	307.714844
67266.775351	0.745080	109.472656	307.714844
67266.777350	0.772698	109.472656	307.714844
67266.781348	0.768574	8.454310	0.534723
67267.816291	0.266404	190.234375	-82.812500
67267.818293	0.564954	190.234375	-82.812500
67267.820294	0.766397	190.234375	-82.812500
67267.824291	0.769844	190.234375	-82.812500
67267.826295	0.768430	8.452733	0.575996
67268.862294	0.495019	106.640625	314.550781
67268.864296	0.742772	106.640625	314.550781
67268.866295	0.772538	106.640625	314.550781
67268.868296	0.770042	8.470458	0.537569
67269.902284	0.438310	205.566406	-84.375000
67269.904286	0.711971	205.566406	-84.375000
67269.906286	0.773548	205.566406	-84.375000
67269.908288	0.770669	8.477362	0.566857
67270.947220	0.505134	109.375000	311.035156
67270.949222	0.747204	109.375000	311.035156
67270.951224	0.772362	109.375000	311.035156
67270.953222	0.769917	8.469085	0.568041
67271.993758	0.751084	191.210937	-82.324219
67271.995761	0.773260	191.210937	-82.324219
67271.999759	0.769209	8.461294	0.558659
67273.031735	0.452957	109.960937	308.398437
67273.033737	0.720794	109.960937	308.398437
67273.035737	0.773052	109.960937	308.398437
67273.037739	0.770316	8.473480	0.513196
67274.076667	0.521302	192.187500	-82.812500
67274.078668	0.753996	192.187500	-82.812500
67274.080668	0.772923	192.187500	-82.812500
67274.082668	0.770462	8.475083	0.552686
67275.121229	0.532156	106.054687	319.042969
67275.123231	0.757549	106.054687	319.042969
67275.125231	0.772479	106.054687	319.042969
67275.127230	0.770158	8.471744	0.576551
67276.165201	0.457555	184.765625	-80.859375
67276.167204	0.723860	184.765625	-80.859375
67276.169205	0.773939	184.765625	-80.859375
67276.171203	0.771105	8.482156	0.545506
67277.209237	0.392013	106.542969	316.992187
67277.211239	0.679196	106.542969	316.992187
67277.213241	0.774677	106.542969	316.992187
67277.215239	0.771684	8.488520	0.536498
67278.253271	0.325181	192.871094	-81.054687
67278.257275	0.773650	192.871094	-81.054687
67278.259274	0.772289	192.871094	-81.054687
67278.261276	0.770200	8.472195	0.559338
67279.293291	0.267529	103.417969	321.972656
67279.295295	0.566037	103.417969	321.972656
67279.297293	0.766896	103.417969	321.972656
67279.299293	0.772617	103.417969	321.972656
67279.301293	0.770357	8.473923	0.547840
67280.343348	0.490309	202.734375	-81.250000
67280.345349	0.740893	202.734375	-81.250000
67280.347350	0.772886	202.734375	-81.250000
67280.349350	0.770294	8.473231	0.545480
67281.379362	0.451037	107.324219	314.648437
67281.381363	0.720024	107.324219	314.648437
67281.383364	0.773875	107.324219	314.648437
67281.385364	0.770971	8.480676	0.545594
67282.436272	0.772632	192.480469	-78.710937
67282.438274	0.770081	8.470892	0.542662
67283.464691	0.519918	105.468750	318.652344
67283.466693	0.753360	105.468750	318.652344
67283.468692	0.772538	105.468750	318.652344
67283.470691	0.770083	8.470919	0.533233
67284.521241	0.488291	201.464844	-79.199219
67284.523241	0.740065	201.464844	-79.199219
67284.525242	0.773151	201.464844	-79.199219
67284.527240	0.770528	8.475811	0.558221
67285.545292	0.493688	104.687500	320.312500
67285.547296	0.742037	104.687500	320.312500
67285.549294	0.772213	104.687500	320.312500
67285.551294	0.769683	8.466515	0.543499
67286.609311	0.356037	209.960937	-79.980469
67286.611314	0.649063	209.960937	-79.980469
67286.613315	0.773387	209.960937	-79.980469
67286.615314	0.770871	8.479577	0.558934
67287.629333	0.373458	101.562500	327.050781
67287.631333	0.663968	101.562500	327.050781
67287.633334	0.774353	101.562500	327.050781
67287.635334	0.771510	8.486605	0.550932
67288.699394	0.521344	216.992187	-80.664062
67288.701394	0.753365	216.992187	-80.664062
67288.703394	0.771977	216.992187	-80.664062
67288.707392	0.768040	8.448435	0.563866
67289.713379	0.246822	101.757812	328.417969
67289.715381	0.546366	101.757812	328.417969
67289.717381	0.761427	101.757812	328.417969
67289.719380	0.771720	101.757812	328.417969
67289.721381	0.769505	8.464556	0.551871
67290.787400	0.379016	226.660156	-83.398437
67290.789401	0.668809	226.660156	-83.398437
67290.791401	0.775540	226.660156	-83.398437
67290.793402	0.772765	8.500412	0.574322
67291.799965	0.507399	103.027344	329.492187
67291.801966	0.747827	103.027344	329.492187
67291.803968	0.771687	103.027344	329.492187
67291.805966	0.769363	8.462996	0.561277
67292.876523	0.406010	203.320312	-82.714844
67292.878526	0.689259	203.320312	-82.714844
67292.880526	0.772683	203.320312	-82.714844
67292.882525	0.769759	8.467347	0.524455
