time (s)	coil I (A)	last det (V)	int current (uC)
67879.780871	0.520637	152.734375	199.609375
67879.782871	0.811698	152.734375	199.609375
67879.786871	1.049881	152.734375	199.609375
67879.788873	1.046893	152.734375	199.609375
67879.790877	1.044978	11.494763	0.900374
67880.878902	0.565077	258.593750	-150.488281
67880.880903	0.855201	258.593750	-150.488281
67880.882903	1.045320	258.593750	-150.488281
67880.884905	1.049415	258.593750	-150.488281
67880.886906	1.046605	11.512656	0.858815
67881.873439	0.448844	149.414062	201.074219
67881.875442	0.741262	149.414062	201.074219
67881.877440	0.749437	149.414062	201.074219
67881.879442	1.050843	149.414062	201.074219
67881.881442	1.047318	11.520499	0.924436
67882.969426	0.793768	258.593750	-141.992187
67882.971428	1.027158	258.593750	-141.992187
67882.973428	1.050518	258.593750	-141.992187
67882.975428	1.047428	11.521713	0.762654
67883.961461	0.309864	157.519531	189.843750
67883.963462	0.606386	157.519531	189.843750
67883.965463	0.894457	157.519531	189.843750
67883.967464	1.050458	157.519531	189.843750
67883.969464	1.048933	11.538260	0.938707
67885.051478	0.383388	260.742187	-141.699219
67885.053482	0.677672	260.742187	-141.699219
67885.055481	0.957303	260.742187	-141.699219
67885.059479	1.048859	260.742187	-141.699219
67885.061479	1.046446	11.510901	0.789043
67886.061529	0.739692	151.464844	198.144531
67886.065529	1.050515	151.464844	198.144531
67886.067531	1.046996	151.464844	198.144531
67886.069530	1.044896	11.493860	0.871247
67887.137593	0.567138	260.839844	-141.796875
67887.139594	0.857144	260.839844	-141.796875
67887.143592	1.048840	260.839844	-141.796875
67887.145598	1.046105	260.839844	-141.796875
67887.147593	1.044278	11.487053	0.832510
67888.156495	0.418872	150.878906	199.609375
67888.158496	0.711999	150.878906	199.609375
67888.160497	0.982255	150.878906	199.609375
67888.162496	1.051445	150.878906	199.609375
67888.164499	1.047698	11.524682	0.849002
67889.220517	0.278015	243.066406	-136.816406
67889.222520	0.575884	243.066406	-136.816406
67889.224519	0.865493	243.066406	-136.816406
67889.226519	1.047216	243.066406	-136.816406
67889.228519	1.049297	243.066406	-136.816406
67889.230519	1.046552	11.512072	0.827952
67890.250554	0.819268	151.171875	200.195312
67890.252553	0.857543	151.171875	200.195312
67890.254554	1.045647	151.171875	200.195312
67890.256556	1.049194	151.171875	200.195312
67890.258553	1.046470	11.511168	0.828243
67891.306566	0.457263	244.531250	-139.550781
67891.308567	0.749492	244.531250	-139.550781
67891.310566	1.005428	244.531250	-139.550781
67891.312566	1.050826	244.531250	-139.550781
67891.314568	1.047440	11.521838	0.819658
67892.349488	0.826118	151.660156	201.367187
67892.351490	1.037760	151.660156	201.367187
67892.353493	1.049048	151.660156	201.367187
67892.355497	1.046206	11.508261	0.831868
67893.391530	0.470233	241.210937	-140.722656
67893.393531	0.762123	241.210937	-140.722656
67893.395531	1.012097	241.210937	-140.722656
67893.397531	1.050360	241.210937	-140.722656
67893.399532	1.047044	11.517487	0.892948
67894.444472	0.509891	147.460937	208.789062
67894.446475	0.801058	147.460937	208.789062
67894.448473	1.029690	147.460937	208.789062
67894.450473	1.050028	147.460937	208.789062
67894.452473	1.046975	11.516724	0.734912
67895.480531	0.477611	234.863281	-140.917969
67895.482533	0.769321	234.863281	-140.917969
67895.484531	1.015653	234.863281	-140.917969
67895.486531	1.049969	234.863281	-140.917969
67895.488533	1.046745	11.514191	0.858488
67896.528527	0.392391	154.980469	200.097656
67896.530528	0.686356	154.980469	200.097656
67896.532528	0.963705	154.980469	200.097656
67896.534531	1.052122	154.980469	200.097656
67896.538527	1.046049	11.506541	0.787375
67897.570550	0.347747	221.875000	-138.183594
67897.572554	0.919918	221.875000	-138.183594
67897.574552	1.052191	221.875000	-138.183594
67897.576552	1.049205	11.541256	0.842280
67898.624563	0.826595	150.683594	206.738281
67898.626564	1.037861	150.683594	206.738281
67898.628565	1.048956	150.683594	206.738281
67898.630566	1.046142	11.507561	0.842809
67899.657098	0.275375	213.574219	-135.839844
67899.659099	0.573258	213.574219	-135.839844
67899.661099	0.862912	213.574219	-135.839844
67899.663099	1.046993	213.574219	-135.839844
67899.667097	1.046731	213.574219	-135.839844
67899.669099	1.044879	11.493665	0.882384
67900.715126	0.464722	144.726562	216.210937
67900.717126	0.756814	144.726562	216.210937
67900.719128	1.009441	144.726562	216.210937
67900.721128	1.050625	144.726562	216.210937
67900.723128	1.047267	11.519933	0.743427
67901.749143	0.731309	221.191406	-137.402344
67901.751146	0.994662	221.191406	-137.402344
67901.755144	1.047018	221.191406	-137.402344
67901.757146	1.044930	11.494232	0.872219
67902.803142	0.322751	148.242187	210.742187
67902.805143	0.618905	148.242187	210.742187
67902.807145	0.906299	148.242187	210.742187
67902.809144	1.051678	148.242187	210.742187
67902.811144	1.049424	11.543666	0.750683
67903.837733	0.678183	213.671875	-133.398437
67903.839736	0.957682	213.671875	-133.398437
67903.841735	1.053034	213.671875	-133.398437
67903.843735	1.049417	11.543586	0.862257
67904.887724	0.280672	144.726562	214.453125
67904.889724	0.578321	144.726562	214.453125
67904.891724	0.867837	144.726562	214.453125
67904.893724	1.047153	144.726562	214.453125
67904.895727	1.048599	144.726562	214.453125
67904.897726	1.045937	11.505310	0.794856
67905.929753	1.671079	218.457031	-131.640625
67905.931755	0.814182	218.457031	-131.640625
67905.933753	1.034256	218.457031	-131.640625
67905.935755	1.049608	218.457031	-131.640625
67905.937754	1.046660	11.513260	0.846132
67906.979774	0.734860	145.703125	212.792969
67906.981774	0.996802	145.703125	212.792969
67906.983777	1.050828	145.703125	212.792969
67906.985776	1.047256	11.519817	0.779238
67908.020273	0.751861	225.878906	-130.078125
67908.022271	1.006861	225.878906	-130.078125
67908.024271	1.051060	225.878906	-130.078125
67908.026270	1.047635	11.523983	0.861651
67909.066324	0.382739	142.187500	216.699219
67909.068325	0.676904	142.187500	216.699219
67909.070327	0.956596	142.187500	216.699219
67909.072326	1.053214	142.187500	216.699219
67909.074325	1.049578	11.545359	0.750146
67910.112330	0.606037	227.148437	-126.757812
67910.114331	0.894286	227.148437	-126.757812
67910.116333	1.051661	227.148437	-126.757812
67910.118333	1.050372	11.554089	0.843043
67911.148321	0.562191	145.507812	211.328125
67911.150324	0.852334	145.507812	211.328125
67911.152324	1.044644	145.507812	211.328125
67911.154324	1.049367	145.507812	211.328125
67911.156325	1.046506	11.511566	0.919375
67912.206293	0.739009	231.835937	-125.390625
67912.208296	0.999700	231.835937	-125.390625
67912.210295	1.052063	231.835937	-125.390625
67912.212295	1.048576	11.534333	0.807459
67913.232325	0.436888	141.210937	216.894531
67913.234326	0.729517	141.210937	216.894531
67913.236327	0.993655	141.210937	216.894531
67913.238327	1.051081	141.210937	216.894531
67913.240325	1.047401	11.521413	0.795405
67914.300412	0.290507	240.234375	-124.218750
67914.302415	0.587773	240.234375	-124.218750
67914.304415	0.876732	240.234375	-124.218750
67914.306418	1.049042	240.234375	-124.218750
67914.308417	1.049333	240.234375	-124.218750
67914.310418	1.046645	11.513090	0.796737
67915.316471	1.942839	142.089844	216.503906
67915.318472	0.624976	142.089844	216.503906
67915.320471	0.911874	142.089844	216.503906
67915.322471	1.051952	142.089844	216.503906
67915.324473	1.049328	11.542612	0.835264
67916.390468	0.455904	245.703125	-125.292969
67916.392469	0.748106	245.703125	-125.292969
67916.394470	1.004437	245.703125	-125.292969
67916.396469	1.050248	245.703125	-125.292969
67916.398469	1.046741	11.514153	0.790564
67917.402483	0.498560	136.132812	226.171875
67917.404486	0.789834	136.132812	226.171875
67917.406486	1.024956	136.132812	226.171875
67917.408487	1.049647	136.132812	226.171875
67917.410486	1.046599	11.512586	0.848716
67918.484505	0.600577	254.394531	-130.078125
67918.486506	0.888999	254.394531	-130.078125
67918.488506	1.049792	254.394531	-130.078125
67918.490506	1.048723	11.535955	0.755029
67919.486478	0.371120	135.253906	229.101562
67919.490478	0.947003	135.253906	229.101562
67919.492482	1.051276	135.253906	229.101562
67919.494480	1.047618	11.523797	0.855316
67920.578530	0.740264	244.335937	-130.566406
67920.580533	1.000136	244.335937	-130.566406
67920.582532	1.003374	244.335937	-130.566406
67920.584532	1.047332	11.520650	0.725836
67921.575092	0.319604	130.859375	239.062500
67921.577095	0.615796	130.859375	239.062500
67921.579096	0.903305	130.859375	239.062500
67921.581094	1.050563	130.859375	239.062500
67921.585094	1.045758	11.503342	0.860448
67922.667123	0.686377	225.781250	-130.566406
67922.669125	0.963778	225.781250	-130.566406
67922.671127	1.051541	225.781250	-130.566406
67922.673126	1.047686	11.524549	0.734846
67923.667131	0.771828	128.613281	247.070312
67923.669132	1.016945	128.613281	247.070312
67923.671132	1.050122	128.613281	247.070312
67923.673134	1.046805	11.514854	0.870146
67924.755184	0.556181	223.144531	-136.132812
67924.757186	0.846505	223.144531	-136.132812
67924.759188	1.043092	223.144531	-136.132812
67924.761186	1.048805	223.144531	-136.132812
67924.763188	1.046031	11.506338	0.689353
67925.757178	0.330158	130.273437	249.316406
67925.761176	0.912508	130.273437	249.316406
67925.763179	1.050473	130.273437	249.316406
67925.765179	1.047654	11.524196	0.865477
67926.845226	0.714249	206.835937	-137.011719
67926.847228	0.983310	206.835937	-137.011719
67926.849229	1.050509	206.835937	-137.011719
67926.851230	1.046849	11.515342	0.648947
67927.851207	0.475876	130.664062	253.320312
67927.853207	0.767534	130.664062	253.320312
67927.855208	1.014706	130.664062	253.320312
67927.857209	1.050040	130.664062	253.320312
67927.859207	1.046760	11.514359	0.849267
67928.923240	0.308104	195.312500	-138.671875
67928.925242	0.604629	195.312500	-138.671875
67928.927242	0.892851	195.312500	-138.671875
67928.929242	1.050487	195.312500	-138.671875
67928.931242	1.049195	11.541141	0.689046
67929.943753	0.400730	134.179687	251.269531
67929.945754	0.694233	134.179687	251.269531
67929.947756	0.969420	134.179687	251.269531
67929.949756	1.051270	134.179687	251.269531
67929.951755	1.047537	11.522911	0.847282
67931.011727	0.838107	179.589844	-137.890625
67931.013729	1.040755	179.589844	-137.890625
67931.015729	1.048540	179.589844	-137.890625
67931.017729	1.045782	11.503599	0.793592
67932.031743	0.251168	131.835937	255.957031
67932.033746	0.550191	131.835937	255.957031
67932.035746	0.840561	131.835937	255.957031
67932.037747	1.041256	131.835937	255.957031
67932.039746	1.048291	131.835937	255.957031
67932.041746	1.045507	11.500578	0.883828
67933.093753	0.425261	178.906250	-138.964844
67933.095755	0.718131	178.906250	-138.964844
67933.097755	0.986126	178.906250	-138.964844
67933.099754	1.050740	178.906250	-138.964844
67933.101755	1.047051	11.517558	0.721404
67934.128263	0.764864	129.101562	262.011719
67934.130266	1.012988	129.101562	262.011719
67934.132266	1.049199	129.101562	262.011719
67934.134267	1.046084	11.506924	0.856114
67935.180256	0.666807	173.437500	-137.890625
67935.182257	0.948147	173.437500	-137.890625
67935.184256	1.051587	173.437500	-137.890625
67935.186257	1.047872	11.526588	0.715187
67936.218798	0.396570	129.003906	261.914062
67936.220800	0.690191	129.003906	261.914062
67936.222800	0.966490	129.003906	261.914062
67936.224800	1.051347	129.003906	261.914062
67936.226801	1.047656	11.524213	0.816596
67937.262801	0.325199	167.675781	-136.425781
67937.264804	0.621027	167.675781	-136.425781
67937.266804	0.908162	167.675781	-136.425781
67937.268805	1.050275	167.675781	-136.425781
67937.270804	1.047780	11.525578	0.735612
67938.310860	0.847907	130.175781	260.937500
67938.312863	1.043844	130.175781	260.937500
67938.314865	1.049394	130.175781	260.937500
67938.316862	1.046571	11.512283	0.927096
67939.352883	0.490961	160.449219	-133.886719
67939.354884	0.782342	160.449219	-133.886719
67939.356883	1.021483	160.449219	-133.886719
67939.358885	1.049376	160.449219	-133.886719
67939.362883	1.044274	11.487018	0.708631
67940.396913	2.264153	129.199219	262.988281
67940.398914	0.718120	129.199219	262.988281
67940.400914	0.986081	129.199219	262.988281
67940.404912	1.046988	129.199219	262.988281
67940.406914	1.044866	11.493523	0.807193
67941.442940	0.652518	151.171875	-131.835937
67941.444942	0.936358	151.171875	-131.835937
67941.446943	1.052130	151.171875	-131.835937
67941.448946	1.048681	11.535495	0.710945
67942.484954	0.285596	128.515625	263.964844
67942.486955	0.582841	128.515625	263.964844
67942.488963	0.872031	128.515625	263.964844
67942.490961	1.049074	128.515625	263.964844
67942.492961	1.050359	128.515625	263.964844
67942.494960	1.050269	11.552963	0.816169
67943.530985	0.517252	156.640625	-132.031250
67943.534985	1.032186	156.640625	-132.031250
67943.536987	1.049609	156.640625	-132.031250
67943.538987	1.046643	11.513073	0.708998
67944.575009	0.451436	127.539062	265.332031
67944.577010	0.743694	127.539062	265.332031
67944.579013	1.001903	127.539062	265.332031
67944.581011	1.050324	127.539062	265.332031
67944.583010	1.046899	11.515891	0.805132
67945.619061	0.388371	148.925781	-130.957031
67945.621063	0.682265	148.925781	-130.957031
67945.623063	0.693056	148.925781	-130.957031
67945.625063	1.052481	148.925781	-130.957031
67945.627063	1.048825	11.537073	0.705523
67946.663099	1.730726	126.855469	267.187500
67946.665106	0.618070	126.855469	267.187500
67946.667108	0.906441	126.855469	267.187500
67946.669109	1.051229	126.855469	267.187500
67946.671109	1.048902	11.537922	0.795439
67947.709124	0.549261	155.664062	-131.054687
67947.713123	1.041838	155.664062	-131.054687
67947.715125	1.049376	155.664062	-131.054687
67947.717125	1.046529	11.511814	0.801178
67948.749135	0.496076	124.609375	271.875000
67948.751137	0.787402	124.609375	271.875000
67948.753136	1.024006	124.609375	271.875000
67948.755137	1.049865	124.609375	271.875000
67948.757137	1.046692	11.513614	0.790568
67949.801153	0.400560	161.132812	-130.859375
67949.803155	0.694105	161.132812	-130.859375
67949.805155	0.969518	161.132812	-130.859375
67949.807157	1.051855	161.132812	-130.859375
67949.809159	1.048121	11.529336	0.671312
67950.833138	0.369382	126.953125	268.750000
67950.835140	0.663887	126.953125	268.750000
67950.837141	0.945774	126.953125	268.750000
67950.839139	1.052047	126.953125	268.750000
67950.841139	1.048435	11.532784	0.819112
67951.891154	0.552878	173.242187	-131.347656
67951.893155	0.843266	173.242187	-131.347656
67951.895154	1.042671	173.242187	-131.347656
67951.897155	1.049295	173.242187	-131.347656
67951.899154	1.046524	11.511762	0.788570
67952.918111	0.385079	125.390625	272.265625
67952.920114	0.679033	125.390625	272.265625
67952.922112	0.957881	125.390625	272.265625
67952.924112	1.051523	125.390625	272.265625
67952.928111	1.045539	11.500932	0.825351
67953.984141	0.541606	172.265625	-128.222656
67953.986143	0.832108	172.265625	-128.222656
67953.988145	1.039163	172.265625	-128.222656
67953.992147	1.045673	172.265625	-128.222656
67953.994149	1.043869	11.482560	0.731658
67955.002163	0.261989	126.464844	269.433594
67955.004165	0.560224	126.464844	269.433594
67955.006164	0.850264	126.464844	269.433594
67955.008164	1.043644	126.464844	269.433594
67955.010165	1.048375	126.464844	269.433594
67955.012164	1.045692	11.502616	0.828276
67956.077104	0.528347	172.753906	-123.632812
67956.079108	0.819057	172.753906	-123.632812
67956.081106	1.036295	172.753906	-123.632812
67956.083107	1.050116	172.753906	-123.632812
67956.085107	1.047085	11.517930	0.682367
67957.089139	0.575025	125.097656	269.726562
67957.091143	0.864512	125.097656	269.726562
67957.093146	1.046469	125.097656	269.726562
67957.095147	1.048647	125.097656	269.726562
67957.097147	1.045968	11.505646	0.810675
67958.167648	0.758014	183.691406	-120.507812
67958.169650	1.009869	183.691406	-120.507812
67958.171649	1.050105	183.691406	-120.507812
67958.173649	1.046748	11.514226	0.650948
67959.173669	0.525473	122.363281	272.265625
67959.175670	0.816299	122.363281	272.265625
67959.177672	1.034642	122.363281	272.265625
67959.179670	1.048990	122.363281	272.265625
67959.181671	1.046092	11.507011	0.820628
67960.259706	0.611213	200.585937	-117.675781
67960.261708	0.899014	200.585937	-117.675781
67960.263708	1.050948	200.585937	-117.675781
67960.265708	1.049063	11.539696	0.665136
67961.257708	0.405113	120.898437	271.386719
67961.259710	0.698404	120.898437	271.386719
67961.265708	1.046750	120.898437	271.386719
67961.267710	1.044630	120.898437	271.386719
67961.269710	1.042831	11.471136	0.799033
67962.347715	0.472921	209.765625	-114.453125
67962.349717	0.764676	209.765625	-114.453125
67962.351717	1.013269	209.765625	-114.453125
67962.353716	1.049742	209.765625	-114.453125
67962.355719	1.046475	11.511220	0.666252
67963.347726	0.559119	120.410156	267.675781
67963.349729	0.570118	120.410156	267.675781
67963.353728	1.048544	120.410156	267.675781
67963.355727	1.045872	120.410156	267.675781
67963.357728	1.043965	11.483615	0.897551
67964.435729	0.333885	209.765625	-109.570312
67964.437731	0.629445	209.765625	-109.570312
67964.439732	0.915972	209.765625	-109.570312
67964.441732	1.051570	209.765625	-109.570312
67964.443731	1.048778	11.536558	0.666929
67965.435784	0.428845	120.605469	263.671875
67965.437784	0.439958	120.605469	263.671875
67965.439784	0.988413	120.605469	263.671875
67965.441785	1.050770	120.605469	263.671875
67965.443785	1.047097	11.518063	0.751023
67966.521833	1.778901	219.140625	-108.496094
67966.523834	0.808713	219.140625	-108.496094
67966.525836	1.032168	219.140625	-108.496094
67966.527833	1.049259	219.140625	-108.496094
67966.531832	1.044442	11.488861	0.675055
67967.527844	0.277326	120.605469	261.816406
67967.529844	0.574960	120.605469	261.816406
67967.531845	0.864449	120.605469	261.816406
67967.533844	1.046812	120.605469	261.816406
67967.535846	1.048979	120.605469	261.816406
67967.537845	1.046205	11.508251	0.723205
67968.609873	0.966858	232.617187	-108.398437
67968.611876	1.050660	232.617187	-108.398437
67968.613876	1.046931	11.516237	0.696368
67969.617855	0.434843	124.902344	256.152344
67969.619856	0.727327	124.902344	256.152344
67969.621855	0.991773	124.902344	256.152344
67969.623854	1.049863	124.902344	256.152344
67969.625855	1.046392	11.510307	0.744116
67970.690363	0.340459	211.816406	-103.808594
67970.692365	0.635682	211.816406	-103.808594
67970.694365	0.921496	211.816406	-103.808594
67970.696364	1.050872	211.816406	-103.808594
67970.698365	1.047760	11.525366	0.710913
67971.710390	0.359753	123.144531	258.984375
67971.712392	0.654501	123.144531	258.984375
67971.714393	0.937899	123.144531	258.984375
67971.716393	1.052296	123.144531	258.984375
67971.718392	1.048890	11.537790	0.709403
67972.776437	0.520038	213.476562	-104.394531
67972.778439	0.810882	213.476562	-104.394531
67972.780439	1.033089	213.476562	-104.394531
67972.782439	1.049556	213.476562	-104.394531
67972.784440	1.046543	11.511974	0.696539
67973.804432	0.503711	123.632812	259.082031
67973.806432	0.794759	123.632812	259.082031
67973.808432	1.026796	123.632812	259.082031
67973.810433	1.049229	123.632812	259.082031
67973.816431	1.042566	11.468229	0.689556
67974.864459	0.965857	214.550781	-104.785156
67974.866460	1.051232	214.550781	-104.785156
67974.868464	1.047555	11.523105	0.702098
67975.892971	0.443772	121.875000	262.695312
67975.894973	0.736163	121.875000	262.695312
67975.896972	0.997302	121.875000	262.695312
67975.898972	1.050053	121.875000	262.695312
67975.900974	1.046664	11.513304	0.709740
67976.944992	0.346000	203.906250	-104.199219
67976.946993	0.641122	203.906250	-104.199219
67976.948992	0.926226	203.906250	-104.199219
67976.950992	1.051409	203.906250	-104.199219
67976.952992	1.048270	11.530975	0.706729
67977.985014	0.291107	126.367187	257.421875
67977.987016	0.588040	126.367187	257.421875
67977.989020	0.876937	126.367187	257.421875
67977.991019	1.047802	126.367187	257.421875
67977.993019	1.047841	11.526252	0.666258
67979.031015	0.517263	195.703125	-104.101562
67979.033015	0.808020	195.703125	-104.101562
67979.037018	1.048569	195.703125	-104.101562
67979.039017	1.045824	195.703125	-104.101562
67979.043018	1.042023	11.462249	0.718390
67980.075034	0.451017	125.781250	259.179687
67980.077037	0.743146	125.781250	259.179687
67980.079038	1.001496	125.781250	259.179687
67980.081037	1.050042	125.781250	259.179687
67980.083037	1.046597	11.512568	0.660323
67981.119956	0.515954	183.593750	-102.539062
67981.121958	0.806885	183.593750	-102.539062
67981.123957	1.031708	183.593750	-102.539062
67981.125957	1.049669	183.593750	-102.539062
67981.127959	1.046647	11.513118	0.690847
67982.163931	0.441887	121.777344	266.894531
67982.165934	0.734208	121.777344	266.894531
67982.167934	0.996183	121.777344	266.894531
67982.169934	1.050032	121.777344	266.894531
67982.171934	1.046494	11.511435	0.665717
67983.205948	0.680972	180.664062	-101.269531
67983.209947	1.051461	180.664062	-101.269531
67983.211949	1.047794	180.664062	-101.269531
67983.213948	1.045601	11.501614	0.716386
67984.248008	0.323844	124.121094	264.453125
67984.250016	0.619617	124.121094	264.453125
67984.252018	0.907778	124.121094	264.453125
67984.254017	1.051289	124.121094	264.453125
67984.256017	1.048805	11.536859	0.703041
67985.294018	0.549661	175.097656	-100.585937
67985.296020	0.840017	175.097656	-100.585937
67985.298021	1.041640	175.097656	-100.585937
67985.302018	1.046374	175.097656	-100.585937
67985.304020	1.044439	11.488826	0.782944
67986.337999	0.476548	121.972656	267.089844
67986.340003	0.768034	121.972656	267.089844
67986.342002	1.014664	121.972656	267.089844
67986.344001	1.049405	121.972656	267.089844
67986.346001	1.046193	11.508128	0.663507
67987.381970	0.402386	190.234375	-101.562500
67987.383974	0.695752	190.234375	-101.562500
67987.385972	0.970680	190.234375	-101.562500
67987.387972	1.051583	190.234375	-101.562500
67987.389973	1.047812	11.525932	0.693331
67988.425978	0.328849	119.628906	270.996094
67988.427981	0.624494	119.628906	270.996094
67988.429979	0.911257	119.628906	270.996094
67988.431982	0.917875	119.628906	270.996094
67988.433980	1.048744	11.536186	0.684889
67989.469994	0.258902	191.113281	-100.781250
67989.471996	0.557255	191.113281	-100.781250
67989.473996	0.847378	191.113281	-100.781250
67989.475996	1.043706	191.113281	-100.781250
67989.477997	1.049332	191.113281	-100.781250
67989.479996	1.046536	11.511894	0.689464
67990.512036	0.506810	123.730469	263.085937
67990.514039	0.797733	123.730469	263.085937
67990.516039	1.027691	123.730469	263.085937
67990.518037	1.048789	123.730469	263.085937
67990.520038	1.045835	11.504184	0.664594
67991.559976	0.412338	204.980469	-101.074219
67991.561979	0.705397	204.980469	-101.074219
67991.563978	0.977146	204.980469	-101.074219
67991.565977	1.050265	204.980469	-101.074219
67991.567977	1.046651	11.513163	0.697514
67992.596525	0.451547	122.753906	264.843750
67992.598530	0.743623	122.753906	264.843750
67992.600530	1.001670	122.753906	264.843750
67992.602529	1.005283	122.753906	264.843750
67992.604530	1.046572	11.512293	0.678646
67993.651060	0.725977	217.187500	-101.367187
67993.653062	0.991183	217.187500	-101.367187
67993.655065	1.050739	217.187500	-101.367187
67993.657066	1.047146	11.518603	0.690164
67994.681095	1.289260	121.582031	266.113281
67994.683096	0.701082	121.582031	266.113281
67994.685096	0.974123	121.582031	266.113281
67994.687096	1.050355	121.582031	266.113281
67994.689097	1.046682	11.513498	0.671442
67995.746014	0.981066	196.386719	-97.656250
67995.748015	1.050702	196.386719	-97.656250
67995.750018	1.046939	11.516335	0.652349
67996.766038	0.421420	116.601562	273.730469
67996.768042	0.714257	116.601562	273.730469
67996.770040	0.983318	116.601562	273.730469
67996.772039	1.050331	116.601562	273.730469
67996.774040	1.046768	11.514446	0.663515
67997.832071	0.578447	225.488281	-101.562500
67997.834078	0.867737	225.488281	-101.562500
67997.836081	1.047629	225.488281	-101.562500
67997.838081	1.049091	225.488281	-101.562500
67997.840083	1.046326	11.509590	0.869291
67998.850097	0.300473	114.453125	277.441406
67998.852099	0.597014	114.453125	277.441406
67998.854098	0.885399	114.453125	277.441406
67998.856098	1.049352	114.453125	277.441406
67998.858097	1.048637	11.535007	0.674966
67999.926131	0.726092	214.160156	-99.218750
67999.928133	0.991008	214.160156	-99.218750
67999.930133	1.049790	214.160156	-99.218750
67999.932133	1.046280	11.509076	0.645051
68000.936172	0.481139	116.796875	276.660156
68000.938174	0.772496	116.796875	276.660156
68000.940175	1.016882	116.796875	276.660156
68000.942174	1.049574	116.796875	276.660156
68000.944173	1.046427	11.510698	0.662233
68002.012682	0.372751	227.832031	-102.441406
68002.014684	0.667009	227.832031	-102.441406
68002.016683	0.948345	227.832031	-102.441406
68002.018683	1.051863	227.832031	-102.441406
68002.020685	1.048278	11.531063	0.652773
68003.020694	0.429467	111.718750	286.914062
68003.022695	0.722066	111.718750	286.914062
68003.024696	0.988432	111.718750	286.914062
68003.026697	1.050152	111.718750	286.914062
68003.028695	1.046625	11.512877	0.690528
68004.102751	0.535111	199.902344	-100.488281
68004.104755	0.825708	199.902344	-100.488281
68004.106754	1.037330	199.902344	-100.488281
68004.108753	1.048694	199.902344	-100.488281
68004.110753	1.045892	11.504813	0.647598
68005.106775	0.610159	110.449219	291.601562
68005.108776	0.897928	110.449219	291.601562
68005.110777	1.049179	110.449219	291.601562
68005.112776	1.047387	11.521254	0.692604
68006.190806	0.402988	197.949219	-103.515625
68006.192808	0.696350	197.949219	-103.515625
68006.194809	0.970875	197.949219	-103.515625
68006.196808	1.051147	197.949219	-103.515625
68006.198808	1.051027	11.561301	0.627117
68007.194812	0.472924	109.082031	296.679687
68007.196816	0.764473	109.082031	296.679687
68007.198814	1.012671	109.082031	296.679687
68007.200814	1.048940	109.082031	296.679687
68007.202814	1.045828	11.504113	0.698095
68008.282823	0.845388	181.152344	-104.589844
68008.284827	1.042716	181.152344	-104.589844
68008.288823	1.045800	181.152344	-104.589844
68008.290826	1.043900	11.482905	0.733911
68009.284845	0.629738	114.062500	294.238281
68009.286848	0.915979	114.062500	294.238281
68009.288847	1.050763	114.062500	294.238281
68009.290847	1.047867	11.526535	1.038112
68010.364884	0.438110	175.878906	-107.421875
68010.366884	0.730529	175.878906	-107.421875
68010.368885	0.993778	175.878906	-107.421875
68010.372884	1.046494	175.878906	-107.421875
68010.374885	1.044394	11.488338	0.602910
68011.372919	0.500131	115.136719	297.460937
68011.374919	0.791237	115.136719	297.460937
68011.376921	1.024990	115.136719	297.460937
68011.378920	1.048708	115.136719	297.460937
68011.380921	1.045757	11.503325	0.685806
68012.448916	0.312775	154.589844	-107.226562
68012.452925	0.897068	154.589844	-107.226562
68012.454930	1.049313	154.589844	-107.226562
68012.458928	1.045111	11.496217	0.617772
68013.466983	0.649067	112.011719	305.078125
68013.468986	0.933164	112.011719	305.078125
68013.470985	1.052127	112.011719	305.078125
68013.472987	1.048751	11.536266	0.672983
68014.535583	0.579784	157.324219	-109.570312
68014.537584	0.868985	157.324219	-109.570312
68014.539591	1.047932	157.324219	-109.570312
68014.541592	1.049274	157.324219	-109.570312
68014.543593	1.046561	11.512170	0.609998
68015.553614	0.304099	110.156250	310.449219
68015.555616	0.600550	110.156250	310.449219
68015.557617	0.888792	110.156250	310.449219
68015.559617	1.049129	110.156250	310.449219
68015.561617	1.048099	11.529087	0.694130
68016.619638	0.461546	138.378906	-108.789062
68016.621639	0.753356	138.378906	-108.789062
68016.623638	1.007087	138.378906	-108.789062
68016.625643	1.049716	138.378906	-108.789062
68016.627649	1.046289	11.509183	0.580562
68017.643678	0.468606	113.867187	306.250000
68017.645680	0.760200	113.867187	306.250000
68017.647681	1.010680	113.867187	306.250000
68017.649680	1.049292	113.867187	306.250000
68017.651679	1.046157	11.507730	0.673577
68018.704642	0.482770	135.937500	-109.375000
68018.706645	0.774159	135.937500	-109.375000
68018.708644	1.017582	135.937500	-109.375000
68018.710645	1.049287	135.937500	-109.375000
68018.712649	1.046198	11.508181	0.594019
68019.734664	0.763999	113.476562	307.714844
68019.736665	1.012400	113.476562	307.714844
68019.738664	1.049029	113.476562	307.714844
68019.740665	1.045891	11.504805	0.694469
68020.793196	0.423864	140.332031	-110.742187
68020.795197	0.716465	140.332031	-110.742187
68020.799197	1.050103	140.332031	-110.742187
68020.801198	1.046488	140.332031	-110.742187
68020.803197	1.044332	11.487657	0.564028
68021.821696	0.483123	112.207031	308.496094
68021.823697	0.774503	112.207031	308.496094
68021.825698	1.017613	112.207031	308.496094
68021.827697	1.048931	112.207031	308.496094
68021.829697	1.045867	11.504539	0.692420
68022.877704	0.371881	136.621094	-109.960937
68022.879705	0.666049	136.621094	-109.960937
68022.881706	0.947363	136.621094	-109.960937
68022.883706	1.051202	136.621094	-109.960937
68022.885705	1.047555	11.523105	0.582864
68023.909747	0.349394	112.304687	309.765625
68023.911750	0.644207	112.304687	309.765625
68023.913750	0.928875	112.304687	309.765625
68023.915749	1.051361	112.304687	309.765625
68023.917749	1.048048	11.528529	0.682878
68024.967770	0.534902	117.285156	-106.738281
68024.969774	0.825360	117.285156	-106.738281
68024.971771	1.037463	117.285156	-106.738281
68024.973772	1.048886	117.285156	-106.738281
68024.975772	1.046028	11.506310	0.638234
68025.999794	0.510349	112.988281	310.351562
68026.001794	0.801144	112.988281	310.351562
68026.003796	1.029047	112.988281	310.351562
68026.005794	1.048589	112.988281	310.351562
68026.007794	1.045683	11.502509	0.695074
68027.056310	1.019397	138.769531	-108.789062
68027.058310	1.021383	138.769531	-108.789062
68027.060310	1.045887	11.504751	0.554874
68028.090821	0.809661	107.421875	319.433594
68028.092825	1.031803	107.421875	319.433594
68028.094822	1.048341	107.421875	319.433594
68028.096822	1.045524	11.500764	0.646721
68029.140914	0.434940	137.597656	-108.300781
68029.142916	0.727253	137.597656	-108.300781
68029.144917	0.991443	137.597656	-108.300781
68029.146916	1.049094	137.597656	-108.300781
68029.148914	1.045637	11.502005	0.588038
68030.174919	0.701360	110.839844	312.695312
68030.176921	0.974211	110.839844	312.695312
68030.178920	1.050130	110.839844	312.695312
68030.180922	1.046466	11.511124	0.644791
68031.229468	0.375895	146.191406	-109.082031
68031.231469	0.669932	146.191406	-109.082031
68031.233470	0.950536	146.191406	-109.082031
68031.235470	1.051528	146.191406	-109.082031
68031.237468	1.047785	11.525640	0.564874
68032.258404	0.497770	108.789062	315.234375
68032.260406	0.788778	108.789062	315.234375
68032.262407	1.024109	108.789062	315.234375
68032.264408	1.049028	108.789062	315.234375
68032.266406	1.045948	11.505424	0.635222
68033.320402	0.665551	154.980469	-108.789062
68033.324402	1.051813	154.980469	-108.789062
68033.326404	1.048212	154.980469	-108.789062
68033.328403	1.045859	11.504450	0.580669
68034.342410	0.372720	106.738281	317.968750
68034.344412	0.666851	106.738281	317.968750
68034.346412	0.948025	106.738281	317.968750
68034.348412	1.051616	106.738281	317.968750
68034.350412	1.047871	11.526580	0.650380
68035.410457	0.822225	126.660156	-104.394531
68035.412460	1.036122	126.660156	-104.394531
68035.414460	1.048347	126.660156	-104.394531
68035.416460	1.045566	11.501225	0.592661
68036.432458	0.531904	104.980469	319.140625
68036.436457	1.035714	104.980469	319.140625
68036.438459	1.047719	104.980469	319.140625
68036.440459	1.044971	11.494676	0.706792
68037.500506	0.385038	146.679687	-105.468750
68037.502507	0.678708	146.679687	-105.468750
68037.504507	0.957396	146.679687	-105.468750
68037.506507	1.050538	146.679687	-105.468750
68037.508507	1.046831	11.515146	0.528534
68038.512525	0.430181	106.640625	315.039062
68038.514527	0.722518	106.640625	315.039062
68038.516527	0.988449	106.640625	315.039062
68038.518526	1.049412	106.640625	315.039062
68038.520528	1.045934	11.505275	0.653318
68039.592550	0.834687	168.164062	-104.980469
68039.594553	1.039366	168.164062	-104.980469
68039.596553	1.047775	168.164062	-104.980469
68039.600551	1.043133	11.474468	0.563258
68040.597076	0.383742	109.277344	309.570312
68040.599079	0.395559	109.277344	309.570312
68040.601079	0.956523	109.277344	309.570312
68040.603078	1.051310	109.277344	309.570312
68040.605077	1.047541	11.522946	0.642697
68041.678025	0.323896	163.378906	-99.218750
68041.680027	0.619592	163.378906	-99.218750
68041.682027	0.906636	163.378906	-99.218750
68041.684027	1.050152	163.378906	-99.218750
68041.686027	1.047757	11.525330	0.588347
68042.686070	0.386844	105.859375	313.085937
68042.688072	0.680546	105.859375	313.085937
68042.690072	0.958887	105.859375	313.085937
68042.692072	1.050923	105.859375	313.085937
68042.694072	1.047255	11.519808	0.637109
68043.770073	0.775612	188.671875	-100.195312
68043.772076	1.018106	188.671875	-100.195312
68043.774076	1.048753	188.671875	-100.195312
68043.776076	1.045698	11.502677	0.531659
68044.772053	0.964834	106.835937	308.300781
68044.774054	0.841332	106.835937	308.300781
68044.776054	1.040712	106.835937	308.300781
68044.778055	1.047434	106.835937	308.300781
68044.780056	1.044738	11.492123	0.605307
68045.854592	0.727099	185.253906	-95.605469
68045.856595	0.991466	185.253906	-95.605469
68045.858595	1.049796	185.253906	-95.605469
68045.860596	1.046396	11.510352	0.600744
68046.860591	0.489890	104.101562	309.375000
68046.862594	0.781050	104.101562	309.375000
68046.864594	1.020914	104.101562	309.375000
68046.866593	1.049502	104.101562	309.375000
68046.868594	1.046374	11.510114	0.596727
68047.942609	0.587977	184.082031	-92.480469
68047.946621	1.047639	184.082031	-92.480469
68047.948623	1.047509	184.082031	-92.480469
68047.950625	1.044977	11.494746	0.570269
68048.948654	0.358008	105.273437	304.882812
68048.950654	0.652527	105.273437	304.882812
68048.952655	0.935927	105.273437	304.882812
68048.956653	1.047768	105.273437	304.882812
68048.958655	1.045575	11.501322	0.597479
68050.026707	0.477503	208.105469	-92.578125
68050.030707	1.015111	208.105469	-92.578125
68050.032708	1.049332	208.105469	-92.578125
68050.034708	1.046185	11.508039	0.572809
68051.033241	0.315088	108.496094	299.707031
68051.035244	0.611037	108.496094	299.707031
68051.037243	0.898531	108.496094	299.707031
68051.039243	1.050074	108.496094	299.707031
68051.041243	1.048163	11.529797	0.627068
68052.111276	0.433945	191.406250	-88.671875
68052.113276	0.726404	191.406250	-88.671875
68052.115276	0.990842	191.406250	-88.671875
68052.117277	1.049241	191.406250	-88.671875
68052.119276	1.045799	11.503785	0.590446
68053.127304	0.466729	108.789062	299.902344
68053.129307	0.758271	108.789062	299.902344
68053.131307	1.009510	108.789062	299.902344
68053.133308	1.048823	108.789062	299.902344
68053.135308	1.045583	11.501410	0.590877
68054.197321	0.604973	200.683594	-88.085937
68054.201318	1.048745	200.683594	-88.085937
68054.203321	1.047358	200.683594	-88.085937
68054.205321	1.044884	11.493727	0.599784
68055.217331	0.622037	106.542969	302.734375
68055.221331	1.050453	106.542969	302.734375
68055.227331	1.043722	106.542969	302.734375
68055.229333	1.042182	11.464003	0.960566
68056.281324	0.480591	209.179687	-88.867187
68056.283327	0.771911	209.179687	-88.867187
68056.285326	1.016290	209.179687	-88.867187
68056.287327	1.048804	209.179687	-88.867187
68056.289326	1.045754	11.503298	0.594772
68057.304277	0.325581	110.156250	297.363281
68057.306279	0.621144	110.156250	297.363281
68057.308279	0.907997	110.156250	297.363281
68057.310279	1.049951	110.156250	297.363281
68057.312279	1.047493	11.522423	0.603095
68058.366319	0.499811	207.031250	-88.574219
68058.368326	0.790742	207.031250	-88.574219
68058.370325	1.024628	207.031250	-88.574219
68058.372326	1.048064	207.031250	-88.574219
68058.374324	1.045136	11.496501	0.573027
68059.396287	0.771559	112.402344	294.433594
68059.398290	1.015863	112.402344	294.433594
68059.400289	1.048525	112.402344	294.433594
68059.402290	1.045430	11.499727	0.599792
68060.451257	0.509777	187.304687	-87.304687
68060.453258	0.800530	187.304687	-87.304687
68060.455256	1.028445	187.304687	-87.304687
68060.457256	1.048320	187.304687	-87.304687
68060.459258	1.045441	11.499850	0.588318
68061.487277	0.471554	108.007812	299.902344
68061.489280	0.762991	108.007812	299.902344
68061.491281	1.011796	108.007812	299.902344
68061.493280	1.048731	108.007812	299.902344
68061.495281	1.045555	11.501109	0.560411
68062.537307	0.683790	195.898437	-89.062500
68062.539308	0.961488	195.898437	-89.062500
68062.541307	1.051720	195.898437	-89.062500
68062.545307	1.045771	11.503484	0.585227
68063.575842	0.412244	107.324219	301.855469
68063.577843	0.705147	107.324219	301.855469
68063.579843	0.976713	107.324219	301.855469
68063.581844	1.049504	107.324219	301.855469
68063.583846	1.045924	11.505159	0.565126
68064.623824	0.323610	176.660156	-87.011719
68064.625825	0.619193	176.660156	-87.011719
68064.627825	0.906100	176.660156	-87.011719
68064.631822	1.048043	176.660156	-87.011719
68064.633826	1.045675	11.502420	0.559867
68065.659837	0.281542	108.886719	300.390625
68065.661841	0.578713	108.886719	300.390625
68065.663842	0.867782	108.886719	300.390625
68065.665839	1.047211	108.886719	300.390625
68065.667839	1.048744	108.886719	300.390625
68065.669839	1.046144	11.507586	0.595679
68066.709858	0.497010	174.218750	-86.718750
68066.711858	0.787944	174.218750	-86.718750
68066.713858	1.023481	174.218750	-86.718750
68066.715858	1.048626	174.218750	-86.718750
68066.717861	1.045706	11.502767	0.568805
68067.749857	0.441772	111.718750	297.070312
68067.751860	0.733863	111.718750	297.070312
68067.753859	0.745344	111.718750	297.070312
68067.755859	1.049082	111.718750	297.070312
68067.757859	1.045756	11.503316	0.562475
68068.797880	0.359470	161.230469	-84.960937
68068.799882	0.653895	161.230469	-84.960937
68068.801880	0.937221	161.230469	-84.960937
68068.803880	1.051031	161.230469	-84.960937
68068.805880	1.047499	11.522493	0.587302
68069.833860	0.313158	110.253906	297.363281
68069.835862	0.609059	110.253906	297.363281
68069.837862	0.896662	110.253906	297.363281
68069.839862	0.902478	110.253906	297.363281
68069.841863	1.047689	11.524576	0.585194
68070.886850	0.360877	161.132812	-86.328125
68070.888852	0.655259	161.132812	-86.328125
68070.890853	0.938174	161.132812	-86.328125
68070.892852	1.050049	161.132812	-86.328125
68070.894853	1.046598	11.512576	0.564052
68071.922854	0.318074	108.398437	299.023437
68071.926852	0.901137	108.398437	299.023437
68071.928855	1.048731	108.398437	299.023437
68071.930855	1.046666	11.513321	0.575878
68072.973802	0.668049	193.359375	-87.792969
68072.975804	0.948870	193.359375	-87.792969
68072.977802	1.051035	193.359375	-87.792969
68072.979803	1.047317	11.520492	0.591048
68074.010353	0.705601	107.519531	300.488281
68074.012354	0.977032	107.519531	300.488281
68074.014355	1.049570	107.519531	300.488281
68074.016355	1.046019	11.506205	0.555650
68075.060879	0.392029	194.042969	-87.792969
68075.062882	0.685461	194.042969	-87.792969
68075.064881	0.962736	194.042969	-87.792969
68075.066880	1.051227	194.042969	-87.792969
68075.068881	1.047407	11.521475	0.581247
68076.093418	0.442061	107.421875	301.464844
68076.095420	0.734181	107.421875	301.464844
68076.097420	0.995557	107.421875	301.464844
68076.101419	1.045377	107.421875	301.464844
68076.103422	1.043087	11.473954	0.573776
68077.149964	1.726326	203.320312	-88.769531
68077.151963	0.703545	203.320312	-88.769531
68077.153965	0.975594	203.320312	-88.769531
68077.157963	1.046002	203.320312	-88.769531
68077.159965	1.043778	11.481559	0.552788
68078.179961	0.687550	106.738281	302.246094
68078.181961	0.964030	106.738281	302.246094
68078.183962	1.050139	106.738281	302.246094
68078.185962	1.046510	11.511611	0.567360
68079.242511	0.334412	197.167969	-86.035156
68079.244513	0.629659	197.167969	-86.035156
68079.246512	0.915665	197.167969	-86.035156
68079.248513	1.049351	197.167969	-86.035156
68079.250513	1.046536	11.511894	0.569302
68080.264536	0.647168	107.812500	303.320312
68080.266535	0.931276	107.812500	303.320312
68080.268537	1.050965	107.812500	303.320312
68080.270535	1.047619	11.523814	0.558291
68081.332564	0.497004	182.031250	-85.058594
68081.336564	1.023501	182.031250	-85.058594
68081.338566	1.048318	182.031250	-85.058594
68081.340566	1.045392	11.499310	0.557993
68082.348630	0.534679	106.250000	307.617187
68082.350634	0.824919	106.250000	307.617187
68082.352635	1.036000	106.250000	307.617187
68082.356633	1.044368	106.250000	307.617187
68082.358633	1.042379	11.466166	0.565995
68083.420621	0.362438	201.269531	-87.109375
68083.422621	0.656803	201.269531	-87.109375
68083.424621	0.939531	201.269531	-87.109375
68083.426623	1.050932	201.269531	-87.109375
68083.428621	1.047362	11.520987	0.559402
68084.434615	0.698529	102.343750	314.746094
68084.436617	0.972317	102.343750	314.746094
68084.438618	1.051208	102.343750	314.746094
68084.440619	1.047477	11.522245	0.561318
68085.510672	0.523968	182.031250	-86.621094
68085.512674	0.814556	182.031250	-86.621094
68085.514678	1.033451	182.031250	-86.621094
68085.516674	1.048184	182.031250	-86.621094
68085.518673	1.045415	11.499567	0.567430
68086.516673	0.282554	101.171875	320.312500
68086.518675	0.579662	101.171875	320.312500
68086.520676	0.868604	101.171875	320.312500
68086.522674	1.046963	101.171875	320.312500
68086.524674	1.048351	101.171875	320.312500
68086.528672	1.043851	11.482356	0.575654
68087.600713	0.682018	198.339844	-89.355469
68087.602713	0.959838	198.339844	-89.355469
68087.604713	1.050674	198.339844	-89.355469
68087.606713	1.047014	11.517150	0.529975
68088.611249	1.032780	103.027344	321.386719
68088.613252	1.047512	103.027344	321.386719
68088.615252	1.044741	11.492148	0.580070
68089.687227	0.321471	167.187500	-88.476562
68089.689227	0.617167	167.187500	-88.476562
68089.691227	0.904231	167.187500	-88.476562
68089.693229	1.050148	167.187500	-88.476562
68089.695227	1.047945	11.527395	0.518825
68090.691251	0.397384	99.609375	329.199219
68090.693253	0.690607	99.609375	329.199219
68090.695253	0.966274	99.609375	329.199219
68090.697253	1.049958	99.609375	329.199219
68090.699252	1.046283	11.509111	0.576775
68091.773269	0.495167	184.277344	-92.578125
68091.775272	0.786096	184.277344	-92.578125
68091.777273	1.022515	184.277344	-92.578125
68091.779272	1.048306	184.277344	-92.578125
68091.781271	1.045376	11.499133	0.523277
68092.781254	0.550412	100.097656	333.105469
68092.783257	0.840366	100.097656	333.105469
68092.785258	1.040396	100.097656	333.105469
68092.787257	1.041792	100.097656	333.105469
68092.789258	1.044661	11.491272	0.683377
68093.857303	0.373459	178.808594	-94.042969
68093.859303	0.667445	178.808594	-94.042969
68093.861303	0.948273	178.808594	-94.042969
68093.865301	1.047200	178.808594	-94.042969
68093.867304	1.044915	11.494063	0.529941
68094.871311	0.710377	96.679687	340.332031
68094.873313	0.980203	96.679687	340.332031
68094.875314	1.049408	96.679687	340.332031
68094.877312	1.045911	11.505018	0.561268
68095.947345	0.533354	164.941406	-94.726562
68095.949347	0.823617	164.941406	-94.726562
68095.951346	1.036011	164.941406	-94.726562
68095.953347	1.047666	164.941406	-94.726562
68095.955346	1.044947	11.494419	0.553509
68096.957384	0.282970	97.558594	341.894531
68096.959387	0.579925	97.558594	341.894531
68096.961386	0.868852	97.558594	341.894531
68096.963387	1.046304	97.558594	341.894531
68096.967388	1.044910	97.558594	341.894531
68096.969390	1.042957	11.472528	0.590062
68098.031413	0.416693	141.699219	-93.847656
68098.033414	0.709349	141.699219	-93.847656
68098.035414	0.979580	141.699219	-93.847656
68098.039412	1.045913	141.699219	-93.847656
68098.041413	1.045825	11.504078	0.503896
68099.047440	0.448921	98.632812	344.042969
68099.049443	0.740739	98.632812	344.042969
68099.053443	1.048622	98.632812	344.042969
68099.055443	1.045264	98.632812	344.042969
68099.057442	1.043082	11.473902	0.563760
68100.115453	0.291536	137.890625	-94.335937
68100.117454	0.588211	137.890625	-94.335937
68100.119457	0.876752	137.890625	-94.335937
68100.123461	1.047852	137.890625	-94.335937
68100.125462	1.047735	137.890625	-94.335937
68100.127462	1.043412	11.477535	0.512088
68101.137476	0.605781	97.851562	347.363281
68101.139478	0.893504	97.851562	347.363281
68101.141478	1.048422	97.851562	347.363281
68101.143479	1.046888	11.515766	0.886684
68102.201515	0.471898	138.574219	-95.996094
68102.203517	0.763165	138.574219	-95.996094
68102.205516	1.011596	138.574219	-95.996094
68102.207518	1.048221	138.574219	-95.996094
68102.209517	1.045033	11.495367	0.522937
68103.224099	2.243431	100.585937	343.066406
68103.226101	0.555020	100.585937	343.066406
68103.228101	0.844874	100.585937	343.066406
68103.230100	1.041328	100.585937	343.066406
68103.232100	1.047079	100.585937	343.066406
68103.234100	1.044393	11.488321	0.567254
68104.286087	0.428081	116.796875	-94.042969
68104.288089	0.720449	116.796875	-94.042969
68104.290091	0.987009	116.796875	-94.042969
68104.292089	1.049314	116.796875	-94.042969
68104.294089	1.045850	11.504353	0.519452
68105.314125	0.420300	100.878906	344.140625
68105.316125	0.712785	100.878906	344.140625
68105.318128	0.981611	100.878906	344.140625
68105.320126	1.048561	100.878906	344.140625
68105.322129	1.045122	11.496341	0.548260
68106.374660	0.371236	115.136719	-93.554687
68106.376660	0.665167	115.136719	-93.554687
68106.378662	0.946303	115.136719	-93.554687
68106.380661	1.050306	115.136719	-93.554687
68106.382659	1.046708	11.513790	0.494854
68107.398652	0.370282	100.390625	346.386719
68107.400656	0.664177	100.390625	346.386719
68107.402655	0.945398	100.390625	346.386719
68107.406663	1.046488	100.390625	346.386719
68107.410663	1.042367	11.466032	0.578343
68108.460717	0.547463	136.816406	-95.214844
68108.462716	0.837431	136.816406	-95.214844
68108.464718	1.039942	136.816406	-95.214844
68108.466717	1.047617	136.816406	-95.214844
68108.468718	1.044897	11.493868	0.503824
68109.487236	0.311815	99.414062	347.753906
68109.489237	0.607614	99.414062	347.753906
68109.493236	1.047861	99.414062	347.753906
68109.495237	1.046255	99.414062	347.753906
68109.497238	1.043768	11.481443	0.564571
68110.551226	0.772870	137.890625	-95.214844
68110.553234	1.016377	137.890625	-95.214844
68110.555234	1.048189	137.890625	-95.214844
68110.557233	1.045147	11.496616	0.480579
68111.572141	0.319424	99.707031	347.656250
68111.574142	0.614968	99.707031	347.656250
68111.578142	1.048992	99.707031	347.656250
68111.580143	1.046792	99.707031	347.656250
68111.582143	1.044267	11.486938	0.569006
68112.638183	0.480255	139.160156	-94.042969
68112.640185	0.771307	139.160156	-94.042969
68112.642191	1.015544	139.160156	-94.042969
68112.644197	1.048129	139.160156	-94.042969
68112.646202	1.045049	11.495535	0.474527
68113.657158	0.343311	99.121094	349.218750
68113.659160	0.638121	99.121094	349.218750
68113.665159	1.047300	99.121094	349.218750
68113.667160	1.044904	99.121094	349.218750
68113.669160	1.043054	11.473591	0.578398
68114.723156	0.495796	124.609375	-92.089844
68114.727155	1.022422	124.609375	-92.089844
68114.729158	1.047932	124.609375	-92.089844
68114.733155	1.042847	11.471313	0.506782
68115.747181	0.498055	96.972656	351.855469
68115.749183	0.788727	96.972656	351.855469
68115.751182	1.022859	96.972656	351.855469
68115.753183	1.047127	96.972656	351.855469
68115.755184	1.044129	11.485423	0.547398
68116.815177	0.935481	131.933594	-91.308594
68116.819177	1.046301	131.933594	-91.308594
68116.821179	1.043879	11.482667	0.503607
68117.831149	0.366656	97.070312	351.855469
68117.833152	0.660600	97.070312	351.855469
68117.835152	0.942451	97.070312	351.855469
68117.837151	1.049626	97.070312	351.855469
68117.839150	1.046151	11.507659	0.565132
68118.903158	0.798834	146.093750	-91.015625
68118.905160	1.027293	146.093750	-91.015625
68118.907160	1.047482	146.093750	-91.015625
68118.909161	1.044612	11.490731	0.499986
68119.919185	0.829731	95.605469	352.246094
68119.921187	1.037113	95.605469	352.246094
68119.923187	1.046824	95.605469	352.246094
68119.925187	1.046718	11.513897	0.636303
68120.991186	0.665396	165.820312	-91.699219
68120.993189	0.946294	165.820312	-91.699219
68120.995189	1.049845	165.820312	-91.699219
68120.997187	1.046305	11.509351	0.497181
68122.001206	0.416764	95.898437	349.414062
68122.003208	0.709251	95.898437	349.414062
68122.005208	0.979206	95.898437	349.414062
68122.007208	1.048646	95.898437	349.414062
68122.009208	1.045176	11.496935	0.552720
68123.081199	0.812343	171.386719	-89.550781
68123.083201	1.032253	171.386719	-89.550781
68123.087199	1.044683	171.386719	-89.550781
68123.089201	1.042590	11.468487	0.521542
68124.087717	0.656072	100.097656	340.429687
68124.089717	0.938612	100.097656	340.429687
68124.091717	1.050227	100.097656	340.429687
68124.093717	1.046778	11.514562	0.546619
68125.170243	0.825665	164.843750	-86.621094
68125.172241	1.036400	164.843750	-86.621094
68125.174242	1.047213	164.843750	-86.621094
68125.176242	1.044434	11.488772	0.569468
68126.174256	0.298729	97.558594	341.503906
68126.176260	0.594780	97.558594	341.503906
68126.178259	0.882827	97.558594	341.503906
68126.180258	1.047685	97.558594	341.503906
68126.184256	1.044686	11.491547	0.530266
68127.256257	0.398094	189.160156	-85.742187
68127.260257	0.966143	189.160156	-85.742187
68127.262259	1.048603	189.160156	-85.742187
68127.264259	1.048490	11.533395	0.500833
68128.259168	0.305352	98.925781	338.671875
68128.261169	0.601243	98.925781	338.671875
68128.263170	0.888867	98.925781	338.671875
68128.265169	1.048428	98.925781	338.671875
68128.267170	1.047321	11.520535	0.544793
68129.341185	0.407782	201.953125	-84.570312
68129.343188	0.700444	201.953125	-84.570312
68129.345186	0.972872	201.953125	-84.570312
68129.347186	1.048455	201.953125	-84.570312
68129.349188	1.044887	11.493762	0.499960
68130.349258	0.473328	100.000000	332.714844
68130.351260	0.764360	100.000000	332.714844
68130.357259	1.044623	100.000000	332.714844
68130.359262	1.042424	100.000000	332.714844
68130.361260	1.040866	11.449521	0.507789
68131.427245	0.583199	203.515625	-83.007812
68131.429268	0.871688	203.515625	-83.007812
68131.431273	1.045843	203.515625	-83.007812
68131.433273	1.046028	203.515625	-83.007812
68131.435272	1.043416	11.477571	0.517197
68132.439810	0.707059	100.585937	330.859375
68132.441812	0.977450	100.585937	330.859375
68132.443811	1.048273	100.585937	330.859375
68132.445813	1.048148	11.529629	0.502113
68133.515799	0.520680	199.707031	-80.468750
68133.517800	0.810925	199.707031	-80.468750
68133.519799	1.031447	199.707031	-80.468750
68133.521800	1.047100	199.707031	-80.468750
68133.523801	1.044212	11.486326	0.511791
68134.528310	0.499293	100.683594	329.589844
68134.530312	0.925818	100.683594	329.589844
68134.532312	1.049207	100.683594	329.589844
68134.534312	1.046175	11.507924	0.500894
68135.598824	0.249036	203.125000	-79.589844
68135.600826	0.547596	203.125000	-79.589844
68135.604827	1.039137	203.125000	-79.589844
68135.606825	1.046816	203.125000	-79.589844
68135.608826	1.044075	11.484829	0.515054
68136.615775	0.420699	96.386719	334.472656
68136.617777	0.713006	96.386719	334.472656
68136.619778	0.981741	96.386719	334.472656
68136.621775	1.048450	96.386719	334.472656
68136.625775	1.042807	11.470880	0.510114
68137.679774	0.276947	190.917969	-77.343750
68137.681776	0.573937	190.917969	-77.343750
68137.683776	0.862947	190.917969	-77.343750
68137.685777	1.044743	190.917969	-77.343750
68137.687779	1.046780	190.917969	-77.343750
68137.689779	1.044164	11.485804	0.537044
68138.703790	0.279950	99.609375	329.785156
68138.705792	0.576789	99.609375	329.785156
68138.707798	0.865951	99.609375	329.785156
68138.711801	1.047014	99.609375	329.785156
68138.713801	1.044513	99.609375	329.785156
68138.715802	1.042545	11.467991	0.501313
68139.769800	0.437982	174.121094	-76.171875
68139.771801	0.729878	174.121094	-76.171875
68139.773801	0.992432	174.121094	-76.171875
68139.775800	1.047848	174.121094	-76.171875
68139.777801	1.044641	11.491050	0.489515
68140.793823	0.441845	98.437500	330.078125
68140.795824	0.733565	98.437500	330.078125
68140.797825	0.995020	98.437500	330.078125
68140.799826	1.048486	98.437500	330.078125
68140.801825	1.045147	11.496616	0.500382
68141.853849	0.315777	174.804687	-75.976562
68141.855851	0.611256	174.804687	-75.976562
68141.857850	0.898427	174.804687	-75.976562
68141.859851	1.047860	174.804687	-75.976562
68141.861852	1.046051	11.506560	0.499288
68142.883848	0.597114	101.757812	325.488281
68142.885849	0.609755	101.757812	325.488281
68142.887851	1.047495	101.757812	325.488281
68142.889849	1.046664	11.513304	0.494570
68143.938384	0.265375	170.898437	-76.074219
68143.942386	0.851955	170.898437	-76.074219
68143.944386	1.041894	170.898437	-76.074219
68143.946385	1.046023	170.898437	-76.074219
68143.948387	1.043347	11.476817	0.505019
68144.968392	0.549348	100.292969	327.539062
68144.970393	0.839058	100.292969	327.539062
68144.972393	1.040190	100.292969	327.539062
68144.974392	1.047428	100.292969	327.539062
68144.976394	1.044676	11.491441	0.635970
68146.024409	0.440518	196.777344	-78.125000
68146.026410	0.732286	196.777344	-78.125000
68146.028411	0.993878	196.777344	-78.125000
68146.030412	1.047981	196.777344	-78.125000
68146.032411	1.044626	11.490882	0.497481
68147.059400	0.845484	97.656250	332.617187
68147.061402	1.040563	97.656250	332.617187
68147.063406	1.046100	97.656250	332.617187
68147.065409	1.043468	11.478147	0.653829
68148.115400	0.735826	185.546875	-76.757812
68148.117403	0.996001	185.546875	-76.757812
68148.119403	1.047845	185.546875	-76.757812
68148.121404	1.044505	11.489552	0.478052
68149.147949	0.787957	100.976562	327.929687
68149.149952	1.022611	100.976562	327.929687
68149.151952	1.047265	100.976562	327.929687
68149.153951	1.044337	11.487709	0.504262
68150.200503	0.770335	180.371094	-76.367187
68150.202506	1.014480	180.371094	-76.367187
68150.204505	1.047225	180.371094	-76.367187
68150.206505	1.044240	11.486637	0.497559
68151.230508	1.526846	99.804687	331.250000
68151.232510	0.744364	99.804687	331.250000
68151.234510	1.000834	99.804687	331.250000
68151.236510	1.047378	99.804687	331.250000
68151.238511	1.044158	11.485742	0.508327
68152.282519	0.354802	193.359375	-76.757812
68152.284519	0.648984	193.359375	-76.757812
68152.286521	0.932406	193.359375	-76.757812
68152.288520	1.048809	193.359375	-76.757812
68152.290520	1.045606	11.501667	0.513688
68153.318544	0.314363	97.265625	333.789062
68153.320546	0.609842	97.265625	333.789062
68153.322544	0.896949	97.265625	333.789062
68153.324544	1.047595	97.265625	333.789062
68153.326545	1.045986	11.505851	0.495172
68154.372564	0.514549	199.609375	-77.636719
68154.376563	1.029341	199.609375	-77.636719
68154.378566	1.047247	199.609375	-77.636719
68154.380566	1.044501	11.489508	0.497851
68155.403563	0.337957	96.875000	333.691406
68155.405564	0.632631	96.875000	333.691406
68155.407562	0.917987	96.875000	333.691406
68155.409564	1.048421	96.875000	333.691406
68155.413561	1.043187	11.475054	0.497501
68156.461570	0.521161	189.843750	-77.148437
68156.463570	0.811237	189.843750	-77.148437
68156.465570	1.031082	189.843750	-77.148437
68156.467570	1.046505	189.843750	-77.148437
68156.469571	1.043712	11.480832	0.519745
68157.491547	0.794730	97.753906	332.031250
68157.493551	1.025046	97.753906	332.031250
68157.495550	1.046677	97.753906	332.031250
68157.497551	1.043763	11.481391	0.504262
68158.549560	0.378577	202.832031	-77.929687
68158.551563	0.672007	202.832031	-77.929687
68158.553562	0.951539	202.832031	-77.929687
68158.555563	1.049579	202.832031	-77.929687
68158.557562	1.046047	11.506516	0.494223
68159.574504	0.517162	98.144531	331.738281
68159.576506	0.807408	98.144531	331.738281
68159.578506	1.029996	98.144531	331.738281
68159.580507	1.046885	98.144531	331.738281
68159.582506	1.044026	11.484289	0.495865
68160.638491	0.374796	178.222656	-75.781250
68160.642491	0.948569	178.222656	-75.781250
68160.644493	1.048758	178.222656	-75.781250
68160.648491	1.042910	11.472013	0.498137
68161.658518	0.391994	95.019531	337.597656
68161.660519	0.685109	95.019531	337.597656
68161.662517	0.961846	95.019531	337.597656
68161.664518	1.049561	95.019531	337.597656
68161.666519	1.045964	11.505603	0.497099
68162.730516	0.821358	196.875000	-77.148437
68162.732517	0.829434	196.875000	-77.148437
68162.734517	1.046624	196.875000	-77.148437
68162.736519	1.043893	11.482818	0.540507
68163.747036	0.921240	93.750000	340.429687
68163.749040	1.048681	93.750000	340.429687
68163.751044	1.045831	11.504139	0.498020
68164.817061	0.471214	183.593750	-75.976562
68164.819064	0.762273	183.593750	-75.976562
68164.821062	1.010606	183.593750	-75.976562
68164.823064	1.047433	183.593750	-75.976562
68164.825063	1.044331	11.487638	0.481278
68165.833082	1.561999	97.070312	339.746094
68165.835085	0.791873	97.070312	339.746094
68165.837086	1.024128	97.070312	339.746094
68165.839083	1.046999	97.070312	339.746094
68165.841083	1.044061	11.484669	0.469216
68166.908055	0.766311	196.679687	-77.441406
68166.910057	1.012495	196.679687	-77.441406
68166.912058	1.047105	196.679687	-77.441406
68166.914057	1.044013	11.484147	0.477463
68167.918107	0.526060	97.460937	341.796875
68167.920110	0.816178	97.460937	341.796875
68167.922108	1.032840	97.460937	341.796875
68167.924110	1.046562	97.460937	341.796875
68167.926110	1.043730	11.481028	0.480870
68168.992110	0.647905	200.292969	-78.515625
68168.994113	0.931478	200.292969	-78.515625
68168.998110	1.045655	200.292969	-78.515625
68169.000113	1.043258	11.475842	0.506407
68170.002614	0.471440	94.824219	349.511719
68170.004620	0.762456	94.824219	349.511719
68170.006622	1.011328	94.824219	349.511719
68170.008622	1.047633	94.824219	349.511719
68170.010623	1.044493	11.489420	0.490601
68171.080703	0.593898	198.046875	-79.980469
68171.082704	0.881923	198.046875	-79.980469
68171.084703	1.046273	198.046875	-79.980469
68171.086705	1.045754	11.503289	0.790830
68172.087676	0.498951	96.875000	348.925781
68172.089677	0.789344	96.875000	348.925781
68172.091676	1.022815	96.875000	348.925781
68172.095676	1.043705	96.875000	348.925781
68172.099675	1.040161	11.441767	0.487359
68173.171660	0.880774	164.648437	-78.906250
68173.173662	1.046110	164.648437	-78.906250
68173.175661	1.045684	11.502519	0.474662
68174.177702	0.655865	95.019531	354.980469
68174.179705	0.938175	95.019531	354.980469
68174.181703	1.049230	95.019531	354.980469
68174.183704	1.045860	11.504459	0.485414
68175.254219	0.547139	165.234375	-80.566406
68175.256221	0.836892	165.234375	-80.566406
68175.258220	1.038796	165.234375	-80.566406
68175.260222	1.046407	165.234375	-80.566406
68175.262221	1.043677	11.480443	0.487258
68176.260220	0.308525	92.480469	362.109375
68176.262219	0.604114	92.480469	362.109375
68176.266218	1.047790	92.480469	362.109375
68176.268221	1.046458	92.480469	362.109375
68176.270221	1.043935	11.483287	0.514569
68177.344239	0.703766	144.140625	-80.371094
68177.346239	0.975053	144.140625	-80.371094
68177.348241	1.047854	144.140625	-80.371094
68177.350240	1.044335	11.487682	0.450428
68178.350267	0.471475	93.652344	363.964844
68178.352269	0.762429	93.652344	363.964844
68178.356267	1.047175	93.652344	363.964844
68178.358269	1.044100	93.652344	363.964844
68178.360270	1.041982	11.461805	0.501326
68179.428306	0.587451	166.406250	-83.300781
68179.430310	0.875650	166.406250	-83.300781
68179.432316	1.045669	166.406250	-83.300781
68179.436314	1.043057	11.473627	0.455338
68180.438845	0.414633	95.507812	362.890625
68180.440847	0.706956	95.507812	362.890625
68180.442847	0.977177	95.507812	362.890625
68180.444848	1.047652	95.507812	362.890625
68180.446848	1.044222	11.486442	0.501616
68181.513392	0.619938	133.886719	-81.933594
68181.515395	0.906440	133.886719	-81.933594
68181.519392	1.046454	133.886719	-81.933594
68181.521394	1.043992	11.483908	0.463808
68182.527426	0.359854	95.019531	365.234375
68182.529428	0.653775	95.019531	365.234375
68182.533428	1.048589	95.019531	365.234375
68182.535428	1.045248	95.019531	365.234375
68182.537429	1.042794	11.470737	0.499105
68183.597957	0.577117	152.636719	-85.058594
68183.599958	0.865854	152.636719	-85.058594
68183.601958	1.044092	152.636719	-85.058594
68183.603958	1.044904	152.636719	-85.058594
68183.605960	1.043046	11.473511	0.465109
68184.614462	0.679558	89.160156	369.042969
68184.616465	0.957446	89.160156	369.042969
68184.618464	1.049667	89.160156	369.042969
68184.620464	1.046139	11.507534	0.509229
68185.688503	0.806331	116.308594	-83.886719
68185.690505	1.029457	116.308594	-83.886719
68185.692505	1.046551	116.308594	-83.886719
68185.694504	1.043671	11.480380	0.432295
68186.700552	0.253919	93.261719	367.089844
68186.702555	0.551931	93.261719	367.089844
68186.704554	0.841574	93.261719	367.089844
68186.706558	1.040139	93.261719	367.089844
68186.710558	1.044000	93.261719	367.089844
68186.712559	1.041965	11.461619	0.518571
68187.770602	0.405973	128.515625	-84.960937
68187.772604	0.698574	128.515625	-84.960937
68187.774604	0.971784	128.515625	-84.960937
68187.776602	0.976035	128.515625	-84.960937
68187.778605	1.045998	11.505974	0.442683
68188.794624	0.723385	93.066406	369.335937
68188.796626	1.047686	93.066406	369.335937
68188.798629	1.044257	11.486824	0.489680
68189.854658	0.281273	135.351562	-84.472656
68189.856659	0.577931	135.351562	-84.472656
68189.858658	0.866592	135.351562	-84.472656
68189.860659	1.045183	135.351562	-84.472656
68189.862660	1.046691	135.351562	-84.472656
68189.864658	1.044042	11.484457	0.458101
68190.874675	0.299152	96.679687	367.187500
68190.876677	0.595139	96.679687	367.187500
68190.878679	0.882936	96.679687	367.187500
68190.880677	1.046940	96.679687	367.187500
68190.882677	1.046368	11.510051	0.503365
68191.945613	0.578128	142.480469	-83.300781
68191.947614	0.866774	142.480469	-83.300781
68191.949615	1.044977	142.480469	-83.300781
68191.951615	1.046348	142.480469	-83.300781
68191.953615	1.043708	11.480787	0.454509
68192.966196	0.676718	95.019531	370.117187
68192.968197	0.955465	95.019531	370.117187
68192.970196	1.050890	95.019531	370.117187
68192.972196	1.047133	11.518461	0.488789
68194.028713	0.316590	138.085937	-82.421875
68194.030716	0.611953	138.085937	-82.421875
68194.032715	0.899040	138.085937	-82.421875
68194.034715	1.047771	138.085937	-82.421875
68194.038713	1.043211	11.475320	0.456504
68195.050734	0.629206	91.406250	375.878906
68195.052735	0.914913	91.406250	375.878906
68195.056733	1.046559	91.406250	375.878906
68195.058736	1.044171	11.485884	0.493494
68196.118776	0.481420	130.957031	-80.664062
68196.120777	0.772185	130.957031	-80.664062
68196.124774	1.047203	130.957031	-80.664062
68196.126777	1.044056	130.957031	-80.664062
68196.128778	1.043967	11.483641	0.432466
68197.138763	0.492728	94.921875	370.312500
68197.140766	0.783199	94.921875	370.312500
68197.142766	1.020017	94.921875	370.312500
68197.144765	1.046429	94.921875	370.312500
68197.146766	1.043420	11.477615	0.471164
68198.207677	0.472451	151.660156	-81.933594
68198.209679	0.763423	151.660156	-81.933594
68198.211679	1.011057	151.660156	-81.933594
68198.213678	1.047111	151.660156	-81.933594
68198.215678	1.043977	11.483747	0.446590
68199.222181	0.276868	95.019531	368.359375
68199.224183	0.573634	95.019531	368.359375
68199.226184	0.862387	95.019531	368.359375
68199.228183	1.044039	95.019531	368.359375
68199.230184	1.046213	95.019531	368.359375
68199.232182	1.046067	11.506737	0.509961
68200.295099	0.241320	165.917969	-82.226562
68200.297102	0.540326	165.917969	-82.226562
68200.299100	0.830138	165.917969	-82.226562
68200.301102	1.037024	165.917969	-82.226562
68200.303104	1.046529	165.917969	-82.226562
68200.305108	1.043768	11.481443	0.451710
68201.309106	0.583663	90.429687	372.753906
68201.313128	1.045767	90.429687	372.753906
68201.315132	1.046043	90.429687	372.753906
68201.317134	1.043404	11.477447	0.494773
