time (s)	coil I (A)	last det (V)	int current (uC)
65225.770583	0.490665	353.515625	47.070312
65225.772585	0.488803	5.376831	1.620991
65226.833104	0.329646	181.445312	-421.972656
65226.835106	0.488846	181.445312	-421.972656
65226.837106	0.488952	5.378471	1.621185
65227.870015	0.410156	348.144531	41.894531
65227.872014	0.490255	348.144531	41.894531
65227.876015	0.486940	5.356341	1.620838
65228.914024	0.351372	163.671875	-451.367187
65228.916025	0.490114	163.671875	-451.367187
65228.918024	0.489032	5.379348	1.620829
65229.968019	0.475700	343.457031	51.757812
65229.970019	0.490182	343.457031	51.757812
65229.972019	0.488506	5.373570	1.620870
65231.003992	0.458358	176.269531	-425.292969
65231.005995	0.490256	176.269531	-425.292969
65231.007996	0.488432	5.372755	1.620741
65232.054503	0.490167	319.824219	62.988281
65232.056503	0.488315	5.371460	1.621346
65233.093017	0.461751	184.667969	-403.417969
65233.095017	0.489702	184.667969	-403.417969
65233.097019	0.487876	5.366640	1.621077
65234.137031	0.425560	295.800781	68.261719
65234.141030	0.488511	295.800781	68.261719
65234.143033	0.488448	5.372932	1.621007
65235.201110	0.310420	201.269531	-366.601562
65235.203113	0.487638	201.269531	-366.601562
65235.205112	0.489436	5.383797	1.621347
65236.215077	0.489928	298.535156	63.085937
65236.217078	0.489069	5.379755	1.620934
65237.299052	0.416021	182.421875	-421.972656
65237.301055	0.490048	182.421875	-421.972656
65237.303054	0.488060	5.368660	1.621499
65238.299101	0.466960	331.835937	50.976562
65238.301101	0.490130	331.835937	50.976562
65238.303102	0.488383	5.372214	1.621247
65239.385138	0.487590	182.128906	-428.222656
65239.387140	0.489073	5.379800	1.621168
65240.403731	0.406713	353.515625	41.308594
65240.405738	0.490821	353.515625	41.308594
65240.407735	0.488796	5.376760	1.620846
65241.455761	0.319578	171.484375	-437.304687
65241.457760	0.488212	171.484375	-437.304687
65241.459760	0.489090	5.379986	1.621130
65242.503765	0.228897	338.867187	46.679687
65242.505767	0.470297	338.867187	46.679687
65242.507766	0.489276	338.867187	46.679687
65242.509765	0.487615	5.363768	1.620886
65243.543746	0.489875	153.125000	-473.046875
65243.545750	0.487942	5.367366	1.620826
65244.589735	0.392724	312.402344	65.820312
65244.591737	0.490870	312.402344	65.820312
65244.593737	0.488976	5.378736	1.620767
65245.642249	0.374291	198.046875	-370.703125
65245.644251	0.490172	198.046875	-370.703125
65245.646252	0.488467	5.373136	1.620866
65246.666226	0.370957	295.703125	66.894531
65246.668230	0.490620	295.703125	66.894531
65246.670229	0.489044	5.379481	1.621202
65247.742732	0.258154	173.925781	-425.683594
65247.744734	0.478427	173.925781	-425.683594
65247.746734	0.489385	173.925781	-425.683594
65247.748735	0.487769	5.365461	1.620756
65248.747622	3.203295	315.722656	64.550781
65248.751623	0.487939	315.722656	64.550781
65248.753625	0.486747	5.354215	1.620845
65249.840158	0.302945	167.089844	-458.300781
65249.842159	0.487332	167.089844	-458.300781
65249.844159	0.490026	5.390284	1.620958
65250.837065	0.472036	337.500000	48.242187
65250.839065	0.489759	337.500000	48.242187
65250.841066	0.488099	5.369094	1.621427
65251.921963	0.435519	166.210937	-463.964844
65251.923963	0.490228	166.210937	-463.964844
65251.925964	0.488291	5.371203	1.621556
65252.937975	0.451535	355.859375	41.992187
65252.939976	0.490359	355.859375	41.992187
65252.941977	0.488512	5.373632	1.620882
65254.007980	0.489256	172.753906	-442.578125
65254.009981	0.489318	5.382503	1.621269
65255.037955	0.296742	353.710937	38.964844
65255.039957	0.485680	353.710937	38.964844
65255.041957	0.488860	5.377460	1.620837
65256.087927	0.458942	175.097656	-433.398437
65256.089929	0.489451	175.097656	-433.398437
65256.091928	0.487659	5.364247	1.621177
65257.133964	0.489965	357.421875	45.214844
65257.135965	0.487954	5.367490	1.621080
65258.175960	0.366270	164.648437	-450.683594
65258.177963	0.490299	164.648437	-450.683594
65258.179963	0.488837	5.377203	1.620947
65259.222482	0.491944	352.734375	48.144531
65259.224483	0.490482	5.395300	1.620846
65260.260493	0.318157	164.062500	-450.195312
65260.262493	0.487925	164.062500	-450.195312
65260.264494	0.488842	5.377265	1.620752
65261.308498	0.227701	349.316406	50.878906
65261.310497	0.470430	349.316406	50.878906
65261.312499	0.490186	349.316406	50.878906
65261.314498	0.488370	5.372072	1.621196
65262.350509	0.444425	169.824219	-437.109375
65262.352509	0.490050	169.824219	-437.109375
65262.354510	0.488187	5.370060	1.621125
65263.403059	0.434994	347.070312	48.046875
65263.405060	0.490235	347.070312	48.046875
65263.407060	0.488228	5.370512	1.621221
65264.439583	0.453668	161.035156	-456.250000
65264.441584	0.489683	161.035156	-456.250000
65264.443583	0.487823	5.366055	1.621199
65265.491618	0.392445	353.320312	47.851562
65265.493619	0.490135	353.320312	47.851562
65265.495620	0.488170	5.369865	1.620924
65266.531614	0.340366	165.722656	-448.925781
65266.533614	0.489525	165.722656	-448.925781
65266.535616	0.489136	5.380491	1.620910
65267.575623	0.265320	360.449219	43.066406
65267.579622	0.489832	360.449219	43.066406
65267.581623	0.488084	360.449219	43.066406
65267.585621	0.486155	5.347701	1.621007
65268.625637	0.449092	163.867187	-456.250000
65268.627638	0.489755	163.867187	-456.250000
65268.629638	0.487915	5.367065	1.620812
65269.661649	0.425770	367.773437	42.773437
65269.663650	0.490131	367.773437	42.773437
65269.665650	0.488150	5.369653	1.621263
65270.726595	0.423078	172.656250	-445.214844
65270.728597	0.490037	172.656250	-445.214844
65270.730597	0.488021	5.368226	1.621027
65271.745551	0.296586	360.156250	40.527344
65271.747555	0.486409	360.156250	40.527344
65271.749554	0.489722	5.386943	1.621256
65272.823565	0.404889	158.398437	-481.738281
65272.825569	0.490481	158.398437	-481.738281
65272.827567	0.488493	5.373419	1.621182
65273.827597	0.452702	345.214844	45.800781
65273.829600	0.490239	345.214844	45.800781
65273.831601	0.488445	5.372896	1.621087
65274.921589	0.474025	158.203125	-478.027344
65274.923589	0.489516	158.203125	-478.027344
65274.925590	0.487882	5.366702	1.621077
65275.915613	0.349837	324.707031	58.496094
65275.917615	0.489376	324.707031	58.496094
65275.919615	0.488433	5.372763	1.621345
65277.003632	0.491054	188.476562	-390.917969
65277.009633	0.486723	5.353949	1.621199
65278.013654	3.270936	305.957031	67.578125
65278.018988	0.490102	305.957031	67.578125
65278.020990	0.488497	5.373472	1.620890
65279.083536	0.487022	193.164062	-368.359375
65279.085538	0.489037	5.379410	1.621328
65280.117539	0.262523	306.933594	58.593750
65280.119543	0.479269	306.933594	58.593750
65280.121541	0.489099	306.933594	58.593750
65280.123543	0.487489	5.362377	1.621452
65281.161570	0.491621	156.738281	-455.761719
65281.163570	0.489938	5.389318	1.620944
65282.215533	0.386597	337.988281	49.218750
65282.217533	0.490959	337.988281	49.218750
65282.219532	0.489033	5.379366	1.621178
65283.247573	0.367083	182.617187	-411.914062
65283.249576	0.490732	182.617187	-411.914062
65283.251578	0.489285	5.382131	1.620896
65284.299608	0.490152	356.738281	38.476562
65284.301610	0.488604	5.374642	1.621251
65285.353559	0.437744	165.332031	-457.128906
65285.357559	0.488374	165.332031	-457.128906
65285.359560	0.487137	5.358504	1.620776
65286.376161	0.491208	367.089844	40.820312
65286.378162	0.489671	5.386375	1.620761
65287.454686	0.427339	155.371094	-488.476562
65287.456687	0.490070	155.371094	-488.476562
65287.458687	0.488107	5.369174	1.620908
65288.458686	0.464799	346.289062	48.730469
65288.462686	0.488549	346.289062	48.730469
65288.464687	0.487228	5.359506	1.621145
65289.542680	0.298360	177.539062	-428.222656
65289.544678	0.485942	177.539062	-428.222656
65289.546679	0.489053	5.379587	1.621355
65290.546676	0.371522	321.972656	57.324219
65290.548677	0.491918	321.972656	57.324219
65290.550677	0.490436	5.394795	1.620903
65291.628697	2.152190	175.195312	-412.402344
65291.630699	0.490083	175.195312	-412.402344
65291.632700	0.488269	5.370964	1.621029
65292.650731	0.490433	306.542969	61.621094
65292.652733	0.488539	5.373924	1.621426
65293.708783	0.370460	176.562500	-396.191406
65293.710784	0.490955	176.562500	-396.191406
65293.712785	0.489383	5.383212	1.621082
65294.744792	0.330629	306.054687	60.351562
65294.746795	0.489092	306.054687	60.351562
65294.748796	0.489241	5.381652	1.620794
65295.794848	0.475744	171.875000	-409.765625
65295.796850	0.489501	171.875000	-409.765625
65295.798851	0.487809	5.365895	1.620828
65296.842846	0.439735	316.699219	58.398437
65296.844849	0.490389	316.699219	58.398437
65296.846848	0.488463	5.373091	1.621260
65297.879397	0.459292	169.921875	-418.164062
65297.881397	0.490065	169.921875	-418.164062
65297.883397	0.488250	5.370751	1.620813
65298.933411	0.490365	328.515625	55.566406
65298.935415	0.488391	5.372303	1.621111
65299.967960	0.427641	181.152344	-401.562500
65299.969962	0.490417	181.152344	-401.562500
65299.971960	0.488465	5.373118	1.621310
65301.022920	0.489331	335.156250	50.097656
65301.024928	0.487562	335.156250	50.097656
65301.026931	0.486410	5.350510	1.620965
65302.056955	0.431200	151.464844	-467.675781
65302.058957	0.491326	151.464844	-467.675781
65302.060960	0.489444	5.383885	1.620806
65303.111858	0.490669	343.945312	52.441406
65303.113860	0.488808	343.945312	52.441406
65303.115862	0.487512	5.362634	1.620872
65304.145851	0.423470	159.472656	-449.414062
65304.147855	0.490039	159.472656	-449.414062
65304.149854	0.487985	5.367836	1.621198
65305.201854	0.326934	335.058594	47.070312
65305.203858	0.488832	335.058594	47.070312
65305.205854	0.489093	5.380022	1.621442
65306.234276	0.360474	181.738281	-400.488281
65306.236280	0.490503	181.738281	-400.488281
65306.242276	0.486605	5.352655	1.620713
65307.291227	0.385150	328.906250	49.804687
65307.293228	0.490787	328.906250	49.804687
65307.295228	0.488948	5.378426	1.621156
65308.327223	0.345615	161.914062	-436.328125
65308.329226	0.490100	161.914062	-436.328125
65308.331226	0.489423	5.383655	1.621252
65309.375241	0.257264	325.000000	57.519531
65309.377244	0.477993	325.000000	57.519531
65309.379244	0.489153	325.000000	57.519531
65309.381242	0.487504	5.362545	1.621191
65310.421239	0.452088	173.339844	-404.003906
65310.423241	0.490094	173.339844	-404.003906
65310.427241	0.487085	5.357937	1.620957
65311.461252	0.418809	316.210937	60.644531
65311.463255	0.489786	316.210937	60.644531
65311.465255	0.487792	5.365709	1.620754
65312.521263	0.304329	180.468750	-382.617187
65312.523266	0.486586	180.468750	-382.617187
65312.525267	0.488824	5.377061	1.621348
65313.548182	0.491046	308.105469	58.398437
65313.550186	0.489132	5.380447	1.620962
65314.620183	0.480635	183.789062	-378.515625
65314.622185	0.489455	183.789062	-378.515625
65314.624187	0.487922	5.367145	1.621231
65315.626162	0.324515	317.480469	57.519531
65315.628164	0.488419	317.480469	57.519531
65315.630164	0.488962	5.378586	1.621157
65316.712625	0.446516	177.050781	-408.886719
65316.716625	0.487882	177.050781	-408.886719
65316.718627	0.486685	5.353532	1.621310
65317.718648	0.489749	337.792969	50.585937
65317.720654	0.488095	337.792969	50.585937
65317.722655	0.487005	5.357050	1.621235
65318.802688	0.489954	184.472656	-416.601562
65318.804689	0.489253	5.381785	1.620754
65319.809220	0.448189	353.613281	38.769531
65319.811221	0.489829	353.613281	38.769531
65319.813220	0.487926	5.367189	1.620973
65320.889232	0.490176	171.679687	-449.218750
65320.891233	0.488590	5.374491	1.621309
65321.911759	0.734747	374.609375	36.035156
65321.913763	0.488412	5.372533	1.620750
65322.966247	2.525248	142.578125	-506.933594
65322.968249	0.489799	142.578125	-506.933594
65322.970249	0.489754	5.387298	1.621137
65324.007159	0.403938	364.941406	35.546875
65324.009159	0.491020	364.941406	35.546875
65324.011160	0.489032	5.379357	1.620700
65325.047158	0.354734	148.632812	-479.589844
65325.049160	0.490231	148.632812	-479.589844
65325.051159	0.489051	5.379561	1.620757
65326.105125	0.471477	341.308594	41.503906
65326.107126	0.490147	341.308594	41.503906
65326.111127	0.487321	5.360534	1.620716
65327.137151	0.461251	148.046875	-466.894531
65327.139154	0.464143	148.046875	-466.894531
65327.141153	0.488381	5.372188	1.620744
65328.185117	0.408313	324.707031	53.222656
65328.187118	0.490872	324.707031	53.222656
65328.189118	0.488783	5.376609	1.621385
65329.239134	0.488714	151.757812	-441.601562
65329.241135	0.489712	5.386828	1.621006
65330.269108	0.489137	318.750000	63.574219
65330.271111	0.487515	5.362669	1.620884
65331.335668	0.468295	180.468750	-376.367187
65331.337670	0.490175	180.468750	-376.367187
65331.339670	0.488496	5.373455	1.620766
65332.352232	0.489490	322.949219	62.207031
65332.354235	0.488992	5.378914	1.621212
65333.433150	0.481924	163.867187	-427.636719
65333.435152	0.489478	163.867187	-427.636719
65333.437153	0.487780	5.365576	1.621175
65334.437171	0.489260	335.253906	52.050781
65334.439174	0.488294	5.371230	1.621239
65335.521190	0.422185	169.433594	-432.812500
65335.523194	0.490415	169.433594	-432.812500
65335.525193	0.488427	5.372702	1.620797
65336.525233	0.464299	347.851562	49.804687
65336.527235	0.490131	347.851562	49.804687
65336.529235	0.488406	5.372462	1.620755
65337.609251	0.301761	172.167969	-437.988281
65337.611249	0.308337	172.167969	-437.988281
65337.613250	0.489433	5.383761	1.621137
65338.613245	0.371774	357.812500	44.921875
65338.615248	0.490215	357.812500	44.921875
65338.617247	0.488572	5.374297	1.620752
65339.699234	0.433133	174.707031	-438.769531
65339.701234	0.490105	174.707031	-438.769531
65339.703234	0.488135	5.369484	1.620940
65340.709279	0.490179	362.402344	41.406250
65340.711281	0.488405	362.402344	41.406250
65340.713280	0.487231	5.359541	1.621445
65341.787323	0.326061	166.503906	-459.277344
65341.789325	0.489318	166.503906	-459.277344
65341.793323	0.488222	5.370441	1.621330
65342.795294	0.377438	369.140625	41.894531
65342.797297	0.490802	369.140625	41.894531
65342.799302	0.489058	5.379641	1.620986
65343.877302	0.447575	168.554687	-455.078125
65343.879304	0.490481	168.554687	-455.078125
65343.881304	0.488646	5.375103	1.620808
65344.885318	0.472377	368.457031	42.089844
65344.887320	0.489352	368.457031	42.089844
65344.889321	0.489279	5.382069	1.621209
65345.965332	0.339546	160.058594	-473.535156
65345.967333	0.489759	160.058594	-473.535156
65345.969333	0.489311	5.382423	1.620875
65346.975310	0.490389	365.625000	44.042969
65346.977312	0.488429	5.372719	1.621136
65348.059306	0.445867	185.937500	-410.742187
65348.061308	0.450159	185.937500	-410.742187
65348.063313	0.487900	5.366897	1.620966
65349.063304	0.475139	358.105469	46.093750
65349.065306	0.489629	358.105469	46.093750
65349.067306	0.487985	5.367836	1.620964
65350.153322	0.329663	174.902344	-424.609375
65350.155325	0.488922	5.378143	1.621393
65351.155395	0.396614	344.628906	49.316406
65351.161395	0.487268	344.628906	49.316406
65351.165394	0.486368	5.350049	1.620836
65352.243437	0.489981	182.421875	-393.066406
65352.245439	0.488162	5.369777	1.621368
65353.246000	0.489385	335.644531	58.007812
65353.248001	0.488410	5.372506	1.620907
65354.324558	0.227764	191.894531	-354.003906
65354.328557	0.489817	191.894531	-354.003906
65354.330561	0.488104	191.894531	-354.003906
65354.332560	0.486885	5.355730	1.621181
65355.344602	0.249871	314.746094	53.417969
65355.346603	0.476468	314.746094	53.417969
65355.348604	0.489685	314.746094	53.417969
65355.350604	0.487960	5.367561	1.620758
65356.405477	0.249911	171.484375	-383.593750
65356.407479	0.476222	171.484375	-383.593750
65356.409480	0.489430	171.484375	-383.593750
65356.411480	0.487751	5.365266	1.621389
65357.443515	0.464618	318.164062	53.808594
65357.449515	0.487448	318.164062	53.808594
65357.451516	0.486505	5.351556	1.621451
65358.491534	0.419894	165.527344	-402.734375
65358.493534	0.490100	165.527344	-402.734375
65358.495535	0.488050	5.368554	1.620982
65359.539564	0.352638	338.964844	53.222656
65359.541565	0.490304	338.964844	53.222656
65359.543566	0.489292	5.382211	1.620965
65360.575575	2.874907	155.859375	-441.210937
65360.579575	0.488996	155.859375	-441.210937
65360.581575	0.487459	5.362049	1.620760
65361.629582	0.462149	355.273437	40.527344
65361.631582	0.489751	355.273437	40.527344
65361.633587	0.488061	5.368669	1.620907
65362.667599	0.796719	139.160156	-497.558594
65362.669599	0.488357	5.371930	1.621276
65363.713585	0.379867	379.589844	35.742187
65363.715587	0.490180	379.589844	35.742187
65363.717588	0.488424	5.372666	1.621037
65364.765594	0.282911	139.355469	-512.597656
65364.767595	0.484243	139.355469	-512.597656
65364.769596	0.490104	139.355469	-512.597656
65364.771596	0.488447	5.372914	1.621135
65365.795594	0.479999	388.183594	33.691406
65365.797596	0.489121	388.183594	33.691406
65365.799596	0.487371	5.361083	1.620986
65366.863636	0.407458	157.714844	-477.636719
65366.865637	0.490453	157.714844	-477.636719
65366.867636	0.488405	5.372453	1.621168
65367.879641	0.425460	371.191406	33.398437
65367.881643	0.490358	371.191406	33.398437
65367.883643	0.488358	5.371939	1.620816
65368.960068	0.307093	158.593750	-473.535156
65368.962070	0.487522	158.593750	-473.535156
65368.964069	0.489646	5.386101	1.620712
65369.964114	0.384036	363.476562	41.406250
65369.968115	0.489057	363.476562	41.406250
65369.970117	0.487651	5.364158	1.621055
65371.050113	2.316429	166.210937	-440.136719
65371.052114	0.490238	166.210937	-440.136719
65371.054115	0.488332	5.371647	1.621009
65372.054141	0.474220	345.507812	46.386719
65372.056142	0.489824	345.507812	46.386719
65372.058141	0.488145	5.369599	1.620876
65373.138173	2.324964	166.894531	-419.042969
65373.140175	0.489880	166.894531	-419.042969
65373.142175	0.489601	5.385614	1.621452
65374.146184	0.390567	337.890625	54.589844
65374.148186	0.491072	337.890625	54.589844
65374.150185	0.489219	5.381413	1.620965
65375.222709	0.286621	173.632812	-386.621094
65375.224712	0.484249	173.632812	-386.621094
65375.226712	0.489273	173.632812	-386.621094
65375.228711	0.487646	5.364105	1.621203
65376.238698	0.313858	324.218750	53.222656
65376.240699	0.487209	324.218750	53.222656
65376.242699	0.488491	5.373401	1.620718
65377.311657	0.488766	191.699219	-338.281250
65377.313659	0.487174	5.358912	1.621174
65378.334574	0.490622	328.417969	58.398437
65378.336575	0.488670	5.375369	1.621052
65379.397082	0.367940	182.617187	-352.832031
65379.399085	0.490119	182.617187	-352.832031
65379.401084	0.488549	5.374040	1.621139
65380.428015	0.490019	328.808594	59.375000
65380.430017	0.488272	328.808594	59.375000
65380.432017	0.487064	5.357707	1.621013
65381.486050	0.368719	163.671875	-390.722656
65381.488051	0.374943	163.671875	-390.722656
65381.490051	0.488478	5.373260	1.620893
65382.516060	0.489899	329.296875	58.789062
65382.518061	0.488630	5.374935	1.620795
65383.574618	0.311458	170.898437	-373.730469
65383.576619	0.487501	170.898437	-373.730469
65383.578619	0.489076	5.379836	1.620935
65384.606635	0.489525	330.859375	59.472656
65384.608636	0.487917	330.859375	59.472656
65384.610636	0.486830	5.355127	1.621165
65385.663584	0.312930	172.265625	-370.117187
65385.665584	0.488157	172.265625	-370.117187
65385.667584	0.489720	5.386917	1.621314
65386.693603	0.485881	330.468750	58.984375
65386.695605	0.488678	5.375457	1.620824
65387.760126	0.490964	171.289062	-371.582031
65387.762128	0.489290	5.382193	1.621185
65388.780625	0.311118	329.785156	57.812500
65388.782629	0.487571	329.785156	57.812500
65388.784629	0.489241	5.381652	1.620805
65389.846676	0.444126	172.265625	-371.582031
65389.848679	0.490192	172.265625	-371.582031
65389.850678	0.488285	5.371133	1.620982
65390.872661	0.490876	330.664062	55.664062
65390.874663	0.488942	5.378364	1.620634
65391.947197	0.488740	154.589844	-417.773437
65391.949200	0.487314	5.360454	1.621172
65392.957669	0.490880	337.695312	53.906250
65392.959672	0.489112	5.380234	1.620926
65394.036209	0.371285	160.449219	-418.359375
65394.038211	0.490338	160.449219	-418.359375
65394.040209	0.488767	5.376441	1.620839
65395.044233	0.419448	347.851562	50.097656
65395.046235	0.490326	347.851562	50.097656
65395.048234	0.488293	5.371221	1.621268
65396.124801	0.317233	165.136719	-426.855469
65396.126804	0.488128	165.136719	-426.855469
65396.128802	0.489217	5.381386	1.621486
65397.132809	0.372906	364.648437	44.628906
65397.134810	0.491146	364.648437	44.628906
65397.136810	0.489551	5.385064	1.620671
65398.217363	0.239514	177.929687	-416.894531
65398.219366	0.473842	177.929687	-416.894531
65398.223364	0.488176	177.929687	-416.894531
65398.225365	0.486935	5.356288	1.621465
65399.223389	0.488138	380.859375	37.792969
65399.225390	0.488978	5.378755	1.621379
65400.303935	0.456791	168.945312	-447.851562
65400.305938	0.490562	168.945312	-447.851562
65400.307938	0.488806	5.376866	1.620863
65401.324502	0.485792	391.015625	31.738281
65401.326504	0.489237	391.015625	31.738281
65401.328504	0.487635	5.363990	1.620999
65402.390491	0.489953	162.402344	-462.207031
65402.392493	0.487928	5.367207	1.621102
65403.420462	0.409000	381.835937	27.441406
65403.422463	0.490029	381.835937	27.441406
65403.424463	0.489982	5.389805	1.621530
65404.469372	0.441776	152.050781	-474.804687
65404.471373	0.490265	152.050781	-474.804687
65404.473375	0.488287	5.371160	1.620820
65405.519386	0.490269	383.105469	32.421875
65405.521388	0.488470	5.373171	1.620751
65406.553930	0.412029	140.136719	-486.328125
65406.555938	0.490528	140.136719	-486.328125
65406.557941	0.488477	5.373251	1.620766
65407.605913	0.320662	370.800781	40.527344
65407.607916	0.488328	370.800781	40.527344
65407.609917	0.489141	5.380553	1.620977
65408.642885	0.411062	158.300781	-424.023437
65408.644889	0.490135	158.300781	-424.023437
65408.646888	0.488031	5.368341	1.621252
65409.698921	0.488655	352.050781	47.949219
65409.700922	0.487179	5.358965	1.620757
65410.735429	0.346032	167.089844	-383.886719
65410.737431	0.489798	167.089844	-383.886719
65410.739431	0.489026	5.379286	1.621047
65411.781429	0.482064	336.914062	52.246094
65411.783430	0.490098	336.914062	52.246094
65411.785431	0.488457	5.373029	1.621232
65412.837435	0.435754	154.882812	-397.851562
65412.839435	0.489714	154.882812	-397.851562
65412.841436	0.487806	5.365869	1.620828
65413.861458	0.437728	333.007812	54.296875
65413.863460	0.489964	333.007812	54.296875
65413.865461	0.487950	5.367446	1.621186
65414.931477	0.487158	172.656250	-360.351562
65414.933478	0.489268	5.381945	1.621225
65415.952442	0.490534	336.621094	55.371094
65415.954444	0.488589	5.374474	1.621246
65417.018988	0.386770	177.050781	-358.496094
65417.020990	0.491806	177.050781	-358.496094
65417.022991	0.489989	5.389876	1.621205
65418.039010	0.488797	334.375000	49.218750
65418.041013	0.487499	5.362492	1.620917
65419.111471	0.304860	160.644531	-402.539062
65419.113474	0.487350	160.644531	-402.539062
65419.115474	0.489790	5.387687	1.620609
65420.124359	0.447550	350.195312	53.027344
65420.126361	0.489830	350.195312	53.027344
65420.128358	0.487913	5.367047	1.621200
65421.205256	0.405239	170.996094	-386.132812
65421.207258	0.491026	170.996094	-386.132812
65421.209258	0.489057	5.379632	1.621060
65422.213259	0.441944	341.503906	45.410156
65422.215261	0.489822	341.503906	45.410156
65422.217259	0.487907	5.366976	1.621267
65423.293240	0.265619	159.667969	-413.085937
65423.295242	0.480450	159.667969	-413.085937
65423.297244	0.489810	159.667969	-413.085937
65423.301246	0.487041	5.357450	1.621145
65424.301283	0.331516	346.875000	48.437500
65424.303286	0.489673	346.875000	48.437500
65424.305288	0.489762	5.387386	1.621439
65425.385316	0.490251	173.339844	-378.515625
65425.387317	0.488199	173.339844	-378.515625
65425.389316	0.486934	5.356279	1.621081
65426.395337	0.447128	349.218750	53.027344
65426.397340	0.490260	349.218750	53.027344
65426.399338	0.488347	5.371815	1.620931
65427.471355	0.293505	164.453125	-388.378906
65427.473360	0.485496	164.453125	-388.378906
65427.475360	0.488943	164.453125	-388.378906
65427.477359	0.487375	5.361127	1.621210
65428.485370	0.489945	346.289062	55.664062
65428.487373	0.489423	5.383655	1.620751
65429.561396	0.435243	166.113281	-372.753906
65429.563398	0.489728	166.113281	-372.753906
65429.565397	0.489646	5.386101	1.620897
65430.581429	0.488730	331.640625	49.804687
65430.583431	0.487515	5.362660	1.621178
65431.646309	0.439691	159.765625	-378.027344
65431.648311	0.490114	159.765625	-378.027344
65431.650313	0.488135	5.369484	1.620893
65432.680329	0.491036	335.156250	51.367187
65432.682330	0.489024	5.379260	1.620944
65433.730876	0.410873	179.785156	-336.523437
65433.732879	0.490223	179.785156	-336.523437
65433.734879	0.488210	5.370308	1.620854
65434.770857	0.360447	341.015625	48.339844
65434.772860	0.489937	341.015625	48.339844
65434.774859	0.488643	5.375076	1.621201
65435.814910	0.295525	158.300781	-395.019531
65435.816912	0.486786	158.300781	-395.019531
65435.818911	0.490352	158.300781	-395.019531
65435.820913	0.488835	5.377186	1.621393
65436.868898	0.455096	358.105469	44.628906
65436.870902	0.490127	358.105469	44.628906
65436.872902	0.488314	5.371452	1.621487
65437.900885	0.438823	171.972656	-386.718750
65437.904884	0.488671	171.972656	-386.718750
65437.906887	0.487369	5.361056	1.620953
65438.952897	0.364543	378.613281	38.964844
65438.954899	0.490316	378.613281	38.964844
65438.956899	0.488830	5.377132	1.620968
65439.995840	0.489881	136.425781	-487.304687
65439.997842	0.487857	5.366427	1.620914
65441.041842	0.362558	382.519531	28.613281
65441.045842	0.490062	382.519531	28.613281
65441.047843	0.488680	5.375475	1.621185
65442.090748	0.404531	136.132812	-506.445312
65442.092748	0.490885	136.132812	-506.445312
65442.094747	0.488867	5.377540	1.620819
65443.128781	0.490397	390.917969	26.171875
65443.130783	0.488822	5.377044	1.620799
65444.190751	0.489525	136.035156	-518.164062
65444.192755	0.487963	5.367597	1.621430
65445.212785	0.474012	394.531250	26.953125
65445.214789	0.489430	394.531250	26.953125
65445.218786	0.486640	5.353036	1.621031
65446.280813	0.387367	149.218750	-488.476562
65446.282814	0.491302	149.218750	-488.476562
65446.284816	0.489496	5.384453	1.621163
65447.298829	0.490434	397.753906	32.128906
65447.300830	0.488394	5.372329	1.621076
65448.378827	0.465479	149.804687	-480.078125
65448.380828	0.489833	149.804687	-480.078125
65448.382828	0.488032	5.368350	1.621203
65449.380876	0.298864	379.101562	33.300781
65449.382875	0.486400	379.101562	33.300781
65449.384874	0.489527	5.384799	1.621293
65450.466910	0.385230	152.929687	-458.300781
65450.468911	0.490767	152.929687	-458.300781
65450.470911	0.488915	5.378063	1.621123
65451.470932	0.438760	369.921875	37.402344
65451.472934	0.489755	369.921875	37.402344
65451.474934	0.487835	5.366188	1.621402
65452.556936	0.475040	162.304687	-422.851562
65452.558938	0.476227	162.304687	-422.851562
65452.560939	0.487423	5.361650	1.621227
65453.558935	0.321153	366.308594	42.578125
65453.560935	0.488719	366.308594	42.578125
65453.562935	0.489444	5.383885	1.620820
65454.646953	0.490204	171.289062	-388.085937
65454.648956	0.488219	5.370406	1.620783
65455.657484	0.489156	349.121094	40.722656
65455.659486	0.487927	5.367198	1.620853
65456.737922	0.488383	151.464844	-421.582031
65456.739924	0.487140	5.358540	1.620978
65457.740379	0.230006	351.562500	44.824219
65457.742380	0.470675	351.562500	44.824219
65457.744380	0.489482	351.562500	44.824219
65457.746380	0.487741	5.365150	1.621480
65458.822440	0.342928	153.320312	-411.035156
65458.824442	0.489472	153.320312	-411.035156
65458.826440	0.488904	5.377939	1.621235
65459.833324	0.489795	356.933594	48.730469
65459.835325	0.488075	5.368820	1.621119
65460.911851	0.402395	164.746094	-382.714844
65460.913851	0.491585	164.746094	-382.714844
65460.917852	0.488204	5.370246	1.621489
65461.923839	0.430967	352.636719	45.703125
65461.925841	0.490295	352.636719	45.703125
65461.927842	0.488327	5.371593	1.620919
65463.005873	0.476726	175.976562	-360.449219
65463.007875	0.489422	175.976562	-360.449219
65463.009875	0.487780	5.365585	1.620985
65464.013915	0.487961	359.277344	46.875000
65464.015915	0.488836	5.377194	1.621315
65465.094844	0.477370	160.839844	-398.339844
65465.096846	0.489415	160.839844	-398.339844
65465.098846	0.487700	5.364698	1.620816
65466.100857	0.316922	359.765625	43.750000
65466.102858	0.489478	359.765625	43.750000
65466.104857	0.490736	5.398092	1.620951
65467.182898	0.410852	167.773437	-393.164062
65467.184901	0.490916	167.773437	-393.164062
65467.186901	0.488895	5.377841	1.620789
65468.192911	0.490566	368.554687	42.382812
65468.194912	0.490488	368.554687	42.382812
65468.196912	0.487431	5.361739	1.621166
65469.277436	0.489998	160.742187	-422.656250
65469.279436	0.489210	160.742187	-422.656250
65469.283435	0.486776	5.354534	1.621244
65470.279462	0.408482	371.093750	35.937500
65470.281462	0.490479	371.093750	35.937500
65470.283465	0.488532	5.373853	1.621028
65471.365450	0.457530	165.722656	-426.464844
65471.367450	0.489654	165.722656	-426.464844
65471.371449	0.486654	5.353196	1.620768
65472.374011	0.489226	390.820312	34.863281
65472.376015	0.488486	5.373348	1.621001
65473.452966	0.282967	154.199219	-464.355469
65473.456966	0.489085	154.199219	-464.355469
65473.458968	0.487428	154.199219	-464.355469
65473.460967	0.486356	5.349916	1.621045
65474.462958	0.489422	400.292969	30.664062
65474.464958	0.488667	400.292969	30.664062
65474.468956	0.486198	5.348179	1.621210
65475.538985	0.434546	164.843750	-447.167969
65475.540994	0.490172	164.843750	-447.167969
65475.543001	0.488149	5.369644	1.621282
65476.561935	0.295514	392.871094	24.414062
65476.563936	0.486135	392.871094	24.414062
65476.565938	0.489315	392.871094	24.414062
65476.569941	0.486633	5.352965	1.621482
65477.623955	0.444888	135.449219	-514.160156
65477.625956	0.490388	135.449219	-514.160156
65477.627957	0.488434	5.372772	1.621189
65478.654833	0.273147	410.937500	27.343750
65478.656835	0.481682	410.937500	27.343750
65478.658837	0.489123	410.937500	27.343750
65478.660835	0.487558	5.363139	1.621373
65479.708786	0.440220	131.250000	-513.867187
65479.710787	0.489736	131.250000	-513.867187
65479.712789	0.487792	5.365709	1.621231
65480.753222	0.436768	390.820312	25.976562
65480.757222	0.488294	390.820312	25.976562
65480.759225	0.487022	5.357236	1.621027
65481.793231	0.398104	133.984375	-490.429687
65481.795232	0.403442	133.984375	-490.429687
65481.797231	0.488802	5.376822	1.621311
65482.841230	0.318542	392.480469	33.789062
65482.845229	0.488637	392.480469	33.789062
65482.849231	0.486140	5.347541	1.621056
65483.879770	0.489887	137.207031	-460.253906
65483.881771	0.488673	5.375404	1.621268
65484.935810	0.474546	371.972656	38.476562
65484.937812	0.490118	371.972656	38.476562
65484.939812	0.488379	5.372169	1.620816
65485.970349	0.283490	147.949219	-408.691406
65485.972351	0.483726	147.949219	-408.691406
65485.974350	0.489168	147.949219	-408.691406
65485.976350	0.487595	5.363546	1.621016
65487.022401	0.490348	356.542969	42.871094
65487.024403	0.488567	5.374234	1.620945
65488.064449	0.423078	151.074219	-381.152344
65488.066452	0.489922	151.074219	-381.152344
65488.068450	0.487895	5.366843	1.621056
65489.104452	0.381310	347.558594	46.191406
65489.106454	0.491374	347.558594	46.191406
65489.108455	0.489747	5.387218	1.621264
65490.160477	0.269696	153.710937	-363.281250
65490.162478	0.480847	153.710937	-363.281250
65490.164480	0.489090	153.710937	-363.281250
65490.166479	0.487464	5.362102	1.620851
65491.196461	0.489564	346.777344	50.000000
65491.198462	0.487895	5.366843	1.621442
65492.250953	0.457242	160.839844	-347.558594
65492.254954	0.487788	160.839844	-347.558594
65492.256955	0.486617	5.352787	1.620937
65493.283004	0.446501	352.734375	50.585937
65493.289013	0.487123	352.734375	50.585937
65493.291014	0.486221	5.348428	1.621306
65494.343044	0.355859	161.132812	-352.148437
65494.345045	0.489919	161.132812	-352.148437
65494.347045	0.488747	5.376220	1.621409
65495.367085	0.361834	351.953125	49.804687
65495.371084	0.489423	351.953125	49.804687
65495.373085	0.487930	5.367233	1.620983
65496.437119	0.461258	168.652344	-337.695312
65496.439121	0.490230	168.652344	-337.695312
65496.441121	0.488377	5.372152	1.621167
65497.455668	0.305877	354.101562	50.292969
65497.457669	0.486555	354.101562	50.292969
65497.461667	0.487098	5.358078	1.621246
65498.526178	0.467231	168.457031	-341.992187
65498.528179	0.490057	168.457031	-341.992187
65498.530179	0.488316	5.371478	1.621011
65499.544730	0.321644	352.832031	49.121094
65499.546732	0.488303	352.832031	49.121094
65499.548732	0.489007	5.379082	1.621056
65500.614742	0.438542	176.171875	-321.191406
65500.616742	0.490358	176.171875	-321.191406
65500.618745	0.488424	5.372666	1.621105
65501.637658	0.299707	351.464844	48.632812
65501.639663	0.486544	351.464844	48.632812
65501.643666	0.487849	5.366338	1.621385
65502.703688	0.437559	158.691406	-352.148437
65502.705691	0.489658	158.691406	-352.148437
65502.707693	0.487682	5.364504	1.620832
65503.733690	0.490569	351.464844	48.925781
65503.735689	0.488618	5.374793	1.621260
65504.792210	0.392577	148.339844	-369.042969
65504.794213	0.491159	148.339844	-369.042969
65504.796211	0.489281	5.382095	1.620749
65505.824259	0.374345	354.980469	49.316406
65505.826262	0.490788	354.980469	49.316406
65505.828262	0.489128	5.380403	1.621197
65506.879210	0.490564	143.261719	-376.367187
65506.881210	0.488621	5.374828	1.620890
65507.923221	0.489959	356.152344	45.507812
65507.925224	0.489068	5.379747	1.620754
65508.963741	0.490189	160.937500	-355.761719
65508.965743	0.488683	5.375511	1.621404
65510.012269	0.489617	362.500000	38.671875
65510.014271	0.488253	5.370778	1.620932
65511.050331	0.312361	142.089844	-417.382812
65511.052332	0.487192	142.089844	-417.382812
65511.054331	0.488779	5.376574	1.620912
65512.106382	0.489510	383.496094	36.328125
65512.108381	0.487800	5.365798	1.620750
65513.138926	0.255297	134.277344	-458.496094
65513.140926	0.477835	134.277344	-458.496094
65513.142925	0.489613	134.277344	-458.496094
65513.144926	0.487967	5.367641	1.620797
65514.194939	0.490582	397.656250	30.761719
65514.196942	0.488659	5.375254	1.621110
65515.233481	0.447960	129.199219	-492.578125
65515.235483	0.490425	129.199219	-492.578125
65515.237483	0.488615	5.374766	1.621260
65516.277931	0.445674	407.324219	25.878906
65516.279933	0.489856	407.324219	25.878906
65516.281932	0.487921	5.367136	1.621075
65517.331955	0.931775	142.871094	-477.148437
65517.333956	0.488581	5.374394	1.620969
65518.362474	0.415145	410.351562	23.339844
65518.364477	0.489845	410.351562	23.339844
65518.366477	0.487754	5.365293	1.620969
65519.422466	0.295033	135.546875	-503.906250
65519.424470	0.303479	135.546875	-503.906250
65519.426469	0.488912	135.546875	-503.906250
65519.428469	0.487332	5.360649	1.621227
65520.446482	0.296618	416.113281	24.218750
65520.448487	0.485770	416.113281	24.218750
65520.450489	0.488958	5.378541	1.620864
65521.520479	0.414117	149.414062	-473.730469
65521.522476	0.490340	149.414062	-473.730469
65521.524477	0.488215	5.370362	1.621171
65522.536985	0.469372	413.476562	25.976562
65522.538987	0.488932	413.476562	25.976562
65522.540987	0.487233	5.359559	1.620711
65523.611497	0.490662	163.085937	-438.183594
65523.613501	0.488677	5.375449	1.621272
65524.621504	0.446729	400.097656	26.562500
65524.623505	0.489461	400.097656	26.562500
65524.625506	0.487628	5.363910	1.620780
65525.705516	0.489293	139.941406	-482.324219
65525.707519	0.487701	139.941406	-482.324219
65525.709517	0.486659	5.353249	1.620987
65526.709540	0.342027	396.093750	29.296875
65526.711543	0.490174	396.093750	29.296875
65526.713545	0.489708	5.386792	1.620860
65527.791546	0.424504	161.425781	-421.875000
65527.793548	0.490706	161.425781	-421.875000
65527.795548	0.488726	5.375989	1.620867
65528.798078	0.277241	395.800781	32.714844
65528.800080	0.482678	395.800781	32.714844
65528.802080	0.489239	395.800781	32.714844
65528.804079	0.487640	5.364043	1.621438
