time (s)	coil I (A)	last det (V)	int current (uC)
66569.503640	0.582730	119.824219	217.675781
66569.505646	0.770806	119.824219	217.675781
66569.507645	0.773540	119.824219	217.675781
66569.509645	0.771235	8.483582	0.515515
66570.580179	0.478118	107.324219	-183.398437
66570.582180	0.735359	107.324219	-183.398437
66570.584180	0.773981	107.324219	-183.398437
66570.588182	0.769610	8.465708	0.641430
66571.583110	0.390861	118.164062	204.492187
66571.585111	0.678616	118.164062	204.492187
66571.587111	0.775466	118.164062	204.492187
66571.589111	0.772490	8.497391	0.548308
66572.669162	0.479784	93.066406	-175.390625
66572.671164	0.735995	93.066406	-175.390625
66572.673165	0.773545	93.066406	-175.390625
66572.677165	0.769208	8.461286	0.530387
66573.665194	0.582867	122.460937	192.578125
66573.667190	0.770804	122.460937	192.578125
66573.669192	0.773649	122.460937	192.578125
66573.671191	0.771366	8.485027	0.523849
66574.757225	0.347101	70.312500	-169.140625
66574.759226	0.641562	70.312500	-169.140625
66574.761226	0.774652	70.312500	-169.140625
66574.763226	0.772392	8.496309	0.603040
66575.769244	0.392372	130.566406	185.156250
66575.771246	0.679541	130.566406	185.156250
66575.773245	0.774702	130.566406	185.156250
66575.775245	0.771665	8.488316	0.669980
66576.823778	0.663703	60.546875	-166.503906
66576.827776	0.771167	60.546875	-166.503906
66576.829779	0.769334	8.462677	0.603088
66577.863820	0.616374	129.296875	184.472656
66577.867821	0.772106	129.296875	184.472656
66577.869822	0.770081	8.470892	0.581400
66578.915836	0.520342	38.574219	-178.906250
66578.917838	0.753572	38.574219	-178.906250
66578.919838	0.772755	38.574219	-178.906250
66578.921839	0.770322	8.473541	0.538102
66579.957855	0.729388	124.511719	193.847656
66579.959857	0.773510	124.511719	193.847656
66579.961857	0.770769	8.478460	0.528869
66580.992738	0.554622	79.492187	-181.152344
66580.994742	0.764425	79.492187	-181.152344
66580.996744	0.772876	79.492187	-181.152344
66580.998744	0.772768	8.500447	0.749205
66582.032738	0.497157	122.656250	205.957031
66582.034739	0.744335	122.656250	205.957031
66582.036741	0.773269	122.656250	205.957031
66582.038740	0.770631	8.476936	0.453920
66583.088732	0.383952	81.250000	-188.867187
66583.090734	0.672923	81.250000	-188.867187
66583.092732	0.774540	81.250000	-188.867187
66583.094733	0.771557	8.487128	0.688503
66584.113280	0.464935	120.019531	208.007812
66584.115282	0.728340	120.019531	208.007812
66584.117282	0.774225	120.019531	208.007812
66584.119283	0.771410	8.485506	0.584694
66585.187310	0.595109	78.417969	-192.968750
66585.189312	0.771583	78.417969	-192.968750
66585.193310	0.770189	8.472079	0.567694
66586.197880	0.426466	120.117187	210.839844
66586.199882	0.704179	120.117187	210.839844
66586.201882	0.773735	120.117187	210.839844
66586.203881	0.770747	8.478221	0.474309
66587.275898	1.815288	84.667969	-192.382812
66587.277898	0.760049	84.667969	-192.382812
66587.279898	0.772880	84.667969	-192.382812
66587.281897	0.770494	8.475438	0.720026
66588.281945	0.305424	117.480469	202.734375
66588.283946	0.602683	117.480469	202.734375
66588.285946	0.772805	117.480469	202.734375
66588.287948	0.773096	8.504055	0.531676
66589.367974	0.394204	69.921875	-195.703125
66589.369978	0.681034	69.921875	-195.703125
66589.371978	0.774602	69.921875	-195.703125
66589.373978	0.771649	8.488138	0.580355
66590.362038	0.752461	120.312500	207.421875
66590.366039	0.770975	120.312500	207.421875
66590.368038	0.769353	8.462881	0.572858
66591.456555	0.339193	92.871094	-189.746094
66591.458556	0.634470	92.871094	-189.746094
66591.460557	0.639577	92.871094	-189.746094
66591.462558	0.773157	8.504728	0.576822
66592.452590	0.444995	118.359375	199.902344
66592.454598	0.716358	118.359375	199.902344
66592.456597	0.724628	118.359375	199.902344
66592.458595	0.771091	8.481997	0.519447
66593.536678	0.238970	75.878906	-193.652344
66593.538680	0.539797	75.878906	-193.652344
66593.540681	0.760565	75.878906	-193.652344
66593.542680	0.773138	75.878906	-193.652344
66593.544681	0.770743	8.478177	0.667507
66594.538720	0.629888	118.261719	199.609375
66594.540722	0.773774	118.261719	199.609375
66594.542723	0.771954	8.491497	0.583987
66595.625619	0.235406	76.855469	-195.019531
66595.627622	0.536499	76.855469	-195.019531
66595.629622	0.542537	76.855469	-195.019531
66595.631623	0.772712	76.855469	-195.019531
66595.633622	0.770300	8.473303	0.544668
66596.633610	0.771809	118.164062	200.976562
66596.635613	0.771673	118.164062	200.976562
66596.639610	0.768133	8.449463	0.495394
66597.711593	0.404412	62.695312	-200.000000
66597.713595	0.688728	62.695312	-200.000000
66597.715594	0.774649	62.695312	-200.000000
66597.717596	0.771750	8.489255	0.647540
66598.721630	0.729601	119.824219	203.808594
66598.723631	0.773112	119.824219	203.808594
66598.725631	0.770411	8.474525	0.542075
66599.799649	0.769854	41.406250	-203.710937
66599.801652	0.772753	41.406250	-203.710937
66599.803651	0.770482	8.475306	0.792295
66600.817634	0.593073	122.167969	203.027344
66600.819632	0.771518	122.167969	203.027344
66600.821633	0.772659	8.499251	0.476180
66601.866147	0.583099	47.460937	-197.363281
66601.868152	0.770739	47.460937	-197.363281
66601.870152	0.773370	47.460937	-197.363281
66601.872153	0.771018	8.481199	0.854596
66602.912162	0.751199	124.609375	194.042969
66602.914164	0.773154	124.609375	194.042969
66602.916163	0.770679	8.477468	0.522049
66603.954158	0.444561	35.937500	-192.968750
66603.956158	0.716401	35.937500	-192.968750
66603.958159	0.774393	35.937500	-192.968750
66603.960159	0.771461	8.486073	0.613622
66604.998163	0.375169	128.125000	187.207031
66605.000167	0.666205	128.125000	187.207031
66605.002166	0.776089	128.125000	187.207031
66605.004166	0.773292	8.506208	0.515154
66606.040207	0.618586	22.753906	-185.156250
66606.042206	0.774230	22.753906	-185.156250
66606.044208	0.774482	8.519307	0.921957
66607.088183	0.773002	130.078125	175.195312
66607.090183	0.770639	8.477034	0.676221
66608.136219	0.452429	48.730469	-176.074219
66608.138224	0.721049	48.730469	-176.074219
66608.140229	0.773944	48.730469	-176.074219
66608.142231	0.771072	8.481793	0.509063
66609.161175	0.592251	129.296875	173.925781
66609.163178	0.771010	129.296875	173.925781
66609.165178	0.772097	8.493066	0.575465
66610.233721	0.503805	68.945312	-178.417969
66610.235724	0.746943	68.945312	-178.417969
66610.237725	0.772826	68.945312	-178.417969
66610.239725	0.770333	8.473666	0.554061
66611.232243	0.368312	123.437500	177.832031
66611.234249	0.660185	123.437500	177.832031
66611.236254	0.775378	123.437500	177.832031
66611.238257	0.772737	8.500102	0.627118
66612.326307	0.435150	66.796875	-191.210937
66612.328310	0.710191	66.796875	-191.210937
66612.330310	0.773943	66.796875	-191.210937
66612.332309	0.770999	8.480987	0.563021
66613.320319	0.234564	120.898437	191.503906
66613.322321	0.535688	120.898437	191.503906
66613.324321	0.759240	120.898437	191.503906
66613.326322	0.773255	120.898437	191.503906
66613.328321	0.770907	8.479977	0.542426
66614.412318	0.603517	82.226562	-198.632812
66614.414320	0.771936	82.226562	-198.632812
66614.416321	0.771870	8.490576	0.606683
66615.410840	0.470091	117.968750	194.433594
66615.414842	0.773969	117.968750	194.433594
66615.416841	0.771315	117.968750	194.433594
66615.418840	0.769620	8.465822	0.539764
66616.492855	2.226870	63.671875	-203.710937
66616.494855	0.767749	63.671875	-203.710937
66616.496857	0.772813	63.671875	-203.710937
66616.498855	0.770494	8.475430	0.753099
66617.509795	0.712666	121.386719	194.726562
66617.511796	0.773670	121.386719	194.726562
66617.513797	0.770732	8.478053	0.513094
66618.563862	0.333431	33.691406	-204.296875
66618.565864	0.629257	33.691406	-204.296875
66618.567864	0.775073	33.691406	-204.296875
66618.569866	0.773414	8.507555	0.622316
66619.609909	0.565135	126.757812	188.867187
66619.613910	0.772451	126.757812	188.867187
66619.615913	0.770274	126.757812	188.867187
66619.617913	0.768765	8.456410	0.694887
66620.649960	0.516472	26.367187	-195.019531
66620.651961	0.752452	26.367187	-195.019531
66620.653960	0.773118	26.367187	-195.019531
66620.655959	0.770624	8.476865	0.568020
66621.695945	0.716189	130.175781	178.710937
66621.697947	0.773502	130.175781	178.710937
66621.699945	0.770670	8.477370	0.545166
66622.734512	0.471239	28.125000	-185.839844
66622.736514	0.731106	28.125000	-185.839844
66622.738513	0.772735	28.125000	-185.839844
66622.740514	0.770083	8.470910	0.587440
66623.778545	0.406441	132.226562	171.484375
66623.780546	0.690216	132.226562	171.484375
66623.782548	0.774389	132.226562	171.484375
66623.784547	0.771374	8.485116	0.556007
66624.830557	0.306923	47.070312	-179.199219
66624.832558	0.604089	47.070312	-179.199219
66624.834562	0.772911	47.070312	-179.199219
66624.836563	0.772788	8.500669	0.520883
66625.859525	0.438555	128.613281	166.992187
66625.861525	0.712462	128.613281	166.992187
66625.865524	0.771332	128.613281	166.992187
66625.867525	0.769604	8.465646	0.544040
66626.923537	0.293620	41.308594	-184.277344
66626.925543	0.591343	41.308594	-184.277344
66626.927547	0.771904	41.308594	-184.277344
66626.929548	0.773197	8.505162	0.548215
66627.941578	0.627225	128.515625	170.605469
66627.943580	0.774011	128.515625	170.605469
66627.945580	0.772344	8.495787	0.569767
66629.018091	0.519630	49.707031	-187.890625
66629.020092	0.753604	49.707031	-187.890625
66629.022092	0.773238	49.707031	-187.890625
66629.024093	0.770764	8.478407	0.534473
66630.020131	1.788828	123.632812	170.312500
66630.022134	0.596148	123.632812	170.312500
66630.024134	0.771588	123.632812	170.312500
66630.026135	0.772371	8.496078	0.571591
66631.106131	0.384111	50.683594	-192.871094
66631.108135	0.673757	50.683594	-192.871094
66631.110133	0.778798	50.683594	-192.871094
66631.114133	0.774142	8.515567	0.577847
66632.106163	0.473954	122.265625	170.898437
66632.108163	0.733161	122.265625	170.898437
66632.110164	0.774055	122.265625	170.898437
66632.112163	0.771307	8.484381	0.572615
66633.194162	0.241557	57.714844	-194.433594
66633.196165	0.541981	57.714844	-194.433594
66633.198165	0.760623	57.714844	-194.433594
66633.200166	0.772292	57.714844	-194.433594
66633.202166	0.769983	8.469810	0.541741
66634.192171	0.640770	121.093750	171.777344
66634.194174	0.774333	121.093750	171.777344
66634.196173	0.772015	8.492162	0.565388
66635.285059	0.532805	67.871094	-193.359375
66635.287061	0.757828	67.871094	-193.359375
66635.289059	0.772644	67.871094	-193.359375
66635.291060	0.770242	8.472664	0.575177
66636.278006	0.740862	122.558594	172.949219
66636.280008	0.773041	122.558594	172.949219
66636.282008	0.770434	8.474773	0.575412
66637.368043	2.278419	65.625000	-192.578125
66637.370044	0.550202	65.625000	-192.578125
66637.372044	0.763146	65.625000	-192.578125
66637.374044	0.772681	65.625000	-192.578125
66637.376046	0.770361	8.473968	0.558126
66638.372627	0.773914	127.343750	176.757812
66638.374628	0.770940	127.343750	176.757812
66638.376628	0.769243	8.461675	0.541906
66639.456672	0.752435	57.031250	-191.210937
66639.458679	0.773825	57.031250	-191.210937
66639.460679	0.771282	8.484097	0.539548
66640.454652	0.596818	128.027344	172.070312
66640.456652	0.771886	128.027344	172.070312
66640.460650	0.770444	8.474889	0.565214
66641.538687	0.390617	50.878906	-188.769531
66641.540691	0.678284	50.878906	-188.769531
66641.542688	0.775054	50.878906	-188.769531
66641.544689	0.772190	8.494094	0.553534
66642.546712	0.451700	131.738281	170.117187
66642.548713	0.720539	131.738281	170.117187
66642.550714	0.773935	131.738281	170.117187
66642.552714	0.771036	8.481394	0.584662
66643.623635	0.774049	27.832031	-189.843750
66643.625637	0.771008	8.481092	0.525372
66644.636139	0.520194	132.421875	166.406250
66644.638140	0.753763	132.421875	166.406250
66644.640140	0.773252	132.421875	166.406250
66644.642141	0.770769	8.478460	0.584419
66645.704159	0.367246	22.851562	-190.136719
66645.706161	0.659317	22.851562	-190.136719
66645.708160	0.775654	22.851562	-190.136719
66645.710162	0.772974	8.502717	0.527992
66646.732151	0.351913	132.421875	165.820312
66646.734153	0.645994	132.421875	165.820312
66646.736155	0.775776	132.421875	165.820312
66646.738154	0.773521	8.508735	0.574997
66647.780207	0.269727	24.902344	-193.164062
66647.782210	0.568319	24.902344	-193.164062
66647.784213	0.767440	24.902344	-193.164062
66647.786208	0.772537	24.902344	-193.164062
66647.788210	0.770258	8.472833	0.562348
66648.824246	0.753110	130.566406	168.945312
66648.826248	0.773060	130.566406	168.945312
66648.828249	0.770647	8.477122	0.576670
66649.868295	0.723091	20.898437	-203.027344
66649.870298	0.773627	20.898437	-203.027344
66649.872298	0.773514	8.508655	0.573505
66650.910334	0.391318	128.515625	178.027344
66650.912337	0.678923	128.515625	178.027344
66650.914344	0.775589	128.515625	178.027344
66650.916348	0.772729	8.500013	0.539096
66651.954415	0.330511	27.441406	-211.523437
66651.956417	0.626349	27.441406	-211.523437
66651.958416	0.774395	27.441406	-211.523437
66651.960417	0.772917	8.502088	0.592701
66652.992418	0.583922	125.878906	186.718750
66652.994413	0.770494	125.878906	186.718750
66652.996414	0.773011	125.878906	186.718750
66652.998412	0.770674	8.477414	0.510032
66654.048439	0.473967	41.406250	-217.480469
66654.050440	0.732685	41.406250	-217.480469
66654.052441	0.773185	41.406250	-217.480469
66654.056439	0.768870	8.457572	0.614102
66655.072448	0.475393	119.042969	181.738281
66655.074448	0.733611	119.042969	181.738281
66655.076448	0.773588	119.042969	181.738281
66655.078447	0.770912	8.480029	0.505155
66656.144495	0.311620	74.902344	-212.500000
66656.146499	0.608506	74.902344	-212.500000
66656.148499	0.773045	74.902344	-212.500000
66656.150498	0.772593	8.498525	0.591482
66657.148466	0.379579	120.214844	182.031250
66657.150468	0.669525	120.214844	182.031250
66657.152468	0.775706	120.214844	182.031250
66657.154468	0.772912	8.502034	0.518619
66658.238500	0.453372	68.945312	-208.398437
66658.240500	0.721263	68.945312	-208.398437
66658.242500	0.773359	68.945312	-208.398437
66658.244500	0.770504	8.475545	0.590528
66659.232988	0.327834	122.753906	173.046875
66659.234989	0.623803	122.753906	173.046875
66659.238987	0.772397	122.753906	173.046875
66659.240990	0.770407	8.474482	0.549717
66660.329028	0.676187	58.105469	-200.976562
66660.331028	0.774915	58.105469	-200.976562
66660.333029	0.771970	8.491665	0.550436
66661.321570	0.269875	126.464844	164.160156
66661.323571	0.568404	126.464844	164.160156
66661.325572	0.767314	126.464844	164.160156
66661.327571	0.772331	126.464844	164.160156
66661.329571	0.770096	8.471061	0.557423
66662.407608	0.359268	28.320312	-198.828125
66662.409610	0.652499	28.320312	-198.828125
66662.411613	0.775722	28.320312	-198.828125
66662.413617	0.773230	8.505527	0.551713
66663.421622	0.688874	131.250000	160.058594
66663.423626	0.773915	131.250000	160.058594
66663.425625	0.770954	8.480490	0.572325
66664.479679	0.281158	26.367187	-194.726562
66664.481679	0.579197	26.367187	-194.726562
66664.483680	0.768991	26.367187	-194.726562
66664.485680	0.772057	26.367187	-194.726562
66664.491677	0.767216	8.439378	0.563838
66665.513717	0.556475	131.347656	158.203125
66665.515718	0.764541	131.347656	158.203125
66665.517718	0.772383	131.347656	158.203125
66665.519718	0.770104	8.471149	0.698755
66666.567730	0.725502	6.250000	-201.367187
66666.569731	0.773540	6.250000	-201.367187
66666.571730	0.770738	8.478115	0.529680
66667.604187	0.738807	133.496094	165.722656
66667.606189	0.773272	133.496094	165.722656
66667.608188	0.770685	8.477530	0.555205
66668.650171	0.398189	29.199219	-203.906250
66668.652173	0.683918	29.199219	-203.906250
66668.654172	0.774335	29.199219	-203.906250
66668.656173	0.771378	8.485161	0.549474
66669.697121	0.728817	128.027344	163.281250
66669.699123	0.773281	128.027344	163.281250
66669.701122	0.770531	8.475837	0.522070
66670.737589	0.735201	32.812500	-210.546875
66670.739591	0.773193	32.812500	-210.546875
66670.741592	0.770528	8.475811	0.551372
66671.779578	0.407102	126.660156	168.847656
66671.781578	0.690554	126.660156	168.847656
66671.783577	0.773756	126.660156	168.847656
66671.785578	0.770744	8.478186	0.540811
66672.823612	0.340342	32.910156	-214.550781
66672.825614	0.635360	32.910156	-214.550781
66672.827615	0.774621	32.910156	-214.550781
66672.829614	0.772598	8.498578	0.562279
66673.869640	0.569802	128.222656	173.925781
66673.875639	0.769821	128.222656	173.925781
66673.877641	0.768277	128.222656	173.925781
66673.879641	0.767033	8.437366	0.502436
66674.914268	0.590957	27.929687	-217.968750
66674.916273	0.771935	27.929687	-217.968750
66674.918273	0.773432	27.929687	-217.968750
66674.920273	0.771170	8.482874	0.829615
66675.954794	0.611934	124.707031	170.703125
66675.956799	0.773019	124.707031	170.703125
66675.958799	0.772294	8.495237	0.494150
66676.997259	0.313484	30.371094	-218.652344
66677.003261	0.772466	30.371094	-218.652344
66677.007263	0.768838	30.371094	-218.652344
66677.009263	0.767754	8.445289	0.588381
66678.037279	0.257601	127.441406	176.269531
66678.039280	0.556591	127.441406	176.269531
66678.041284	0.765084	127.441406	176.269531
66678.043280	0.773027	127.441406	176.269531
66678.045281	0.770672	8.477388	0.500426
66679.087878	0.559845	30.859375	-219.140625
66679.089877	0.765311	30.859375	-219.140625
66679.093876	0.769847	30.859375	-219.140625
66679.097876	0.767099	8.438092	0.572238
66680.128390	0.577646	125.683594	170.996094
66680.130391	0.768998	125.683594	170.996094
66680.132392	0.772318	125.683594	170.996094
66680.134392	0.770071	8.470786	0.723275
66681.174383	0.747952	22.753906	-219.824219
66681.176385	0.772791	22.753906	-219.824219
66681.178385	0.770266	8.472921	0.564339
66682.214410	0.721623	129.980469	174.414062
66682.216412	0.773301	129.980469	174.414062
66682.218413	0.770533	8.475864	0.502906
66683.258969	0.727979	25.390625	-216.796875
66683.260976	0.773113	25.390625	-216.796875
66683.262975	0.770370	8.474073	0.565455
66684.301041	0.407058	128.906250	166.601562
66684.303046	0.690593	128.906250	166.601562
66684.305045	0.774066	128.906250	166.601562
66684.307045	0.771061	8.481668	0.525746
66685.341044	0.348784	11.523437	-215.527344
66685.343047	0.642861	11.523437	-215.527344
66685.345046	0.774104	11.523437	-215.527344
66685.349045	0.769792	8.467710	0.582976
66686.389054	0.262703	129.687500	161.425781
66686.391054	0.561417	129.687500	161.425781
66686.393055	0.766067	129.687500	161.425781
66686.395054	0.772757	129.687500	161.425781
66686.397054	0.770502	8.475518	0.529197
66687.433089	0.749325	2.539062	-212.109375
66687.435091	0.772705	2.539062	-212.109375
66687.437090	0.770258	8.472842	0.530561
66688.475137	0.447285	131.835937	156.347656
66688.477140	0.717336	131.835937	156.347656
66688.479138	0.772915	131.835937	156.347656
66688.481139	0.770092	8.471007	0.546806
66689.519150	0.377738	17.968750	-204.199219
66689.521150	0.667715	17.968750	-204.199219
66689.523151	0.774744	17.968750	-204.199219
66689.525151	0.771808	8.489893	0.536873
66690.555182	0.339574	130.859375	150.781250
66690.557182	0.634651	130.859375	150.781250
66690.559184	0.774774	130.859375	150.781250
66690.561184	0.772827	8.501095	0.564610
66691.614101	0.655313	30.468750	-200.292969
66691.616104	0.774584	30.468750	-200.292969
66691.618104	0.771903	8.490930	0.533702
66692.636621	0.440852	131.152344	152.050781
66692.638625	0.713512	131.152344	152.050781
66692.640624	0.773487	131.152344	152.050781
66692.642623	0.770569	8.476254	0.555792
66693.706650	0.582410	41.992187	-201.953125
66693.708654	0.770077	41.992187	-201.953125
66693.710653	0.772646	41.992187	-201.953125
66693.712655	0.770341	8.473755	0.778637
66694.719615	0.732058	125.585937	152.050781
66694.723614	0.770072	125.585937	152.050781
66694.725617	0.768409	8.452494	0.529475
66695.799617	0.568694	36.035156	-212.890625
66695.801619	0.767222	36.035156	-212.890625
66695.803620	0.772421	36.035156	-212.890625
66695.805618	0.770103	8.471131	0.560948
66696.797634	0.362284	126.757812	164.355469
66696.799636	0.654593	126.757812	164.355469
66696.801635	0.774344	126.757812	164.355469
66696.803636	0.771704	8.488741	0.537763
66697.893642	0.698959	58.007812	-218.554687
66697.895644	0.773398	58.007812	-218.554687
66697.897644	0.770387	8.474259	0.537737
66698.884604	0.668712	119.335937	164.160156
66698.886606	0.774531	119.335937	164.160156
66698.888606	0.771673	8.488404	0.518878
66699.973091	0.518689	49.511719	-229.394531
66699.975094	0.752626	49.511719	-229.394531
66699.977094	0.772284	49.511719	-229.394531
66699.979093	0.769872	8.468596	0.568951
66700.977133	0.593035	117.285156	166.992187
66700.979131	0.770567	117.285156	166.992187
66700.981130	0.771569	8.487261	0.486512
66702.055604	0.736512	50.585937	-231.933594
66702.057607	0.773074	50.585937	-231.933594
66702.059605	0.770432	8.474748	0.569863
66703.068140	1.916280	120.605469	170.410156
66703.070143	0.585750	120.605469	170.410156
66703.072141	0.771845	120.605469	170.410156
66703.074141	0.774484	120.605469	170.410156
66703.076142	0.772194	8.494129	0.509086
66704.138172	0.772507	26.367187	-233.984375
66704.140178	0.769802	8.467817	0.564919
66705.168178	0.702114	122.753906	165.332031
66705.170180	0.772588	122.753906	165.332031
66705.174180	0.768081	8.448887	0.488736
66706.216197	0.636040	24.804687	-227.246094
66706.218197	0.773943	24.804687	-227.246094
66706.220200	0.771839	8.490230	0.569885
66707.254776	0.370390	127.148437	162.011719
66707.256780	0.661589	127.148437	162.011719
66707.258779	0.774253	127.148437	162.011719
66707.260777	0.771458	8.486037	0.520674
66708.298815	0.303801	6.250000	-224.218750
66708.300821	0.600856	6.250000	-224.218750
66708.304829	0.772269	6.250000	-224.218750
66708.306830	0.770152	8.471672	0.547837
66709.344835	0.531961	130.957031	158.300781
66709.346835	0.757426	130.957031	158.300781
66709.348836	0.772219	130.957031	158.300781
66709.350838	0.769905	8.468951	0.530270
66710.384833	0.476082	2.343750	-219.042969
66710.386837	0.733789	2.343750	-219.042969
66710.388841	0.772898	2.343750	-219.042969
66710.390835	0.770326	8.473586	0.542787
66711.428884	0.412802	131.542969	151.855469
66711.430886	0.694412	131.542969	151.855469
66711.432886	0.773454	131.542969	151.855469
66711.434886	0.770515	8.475669	0.538349
66712.474905	0.637839	2.343750	-214.355469
66712.476908	0.773788	2.343750	-214.355469
66712.478907	0.771548	8.487030	0.533612
66713.512908	0.284544	132.421875	149.316406
66713.514910	0.582305	132.421875	149.316406
66713.516913	0.770348	132.421875	149.316406
66713.520911	0.770822	132.421875	149.316406
66713.522913	0.769341	8.462748	0.543725
66714.562940	0.502601	15.429687	-210.449219
66714.564942	0.746047	15.429687	-210.449219
66714.566941	0.772293	15.429687	-210.449219
66714.568943	0.769839	8.468225	0.533542
66715.598912	0.456206	133.886719	149.121094
66715.600916	0.722805	133.886719	149.121094
66715.602914	0.773087	133.886719	149.121094
66715.604920	0.770362	8.473985	0.537928
66716.653439	0.710979	6.250000	-211.718750
66716.655441	0.773579	6.250000	-211.718750
66716.657440	0.770648	8.477131	0.525207
66717.683423	0.404737	134.570312	149.121094
66717.685424	0.688932	134.570312	149.121094
66717.687426	0.774417	134.570312	149.121094
66717.689426	0.774315	8.517464	0.535825
66718.740324	0.425453	10.449219	-210.742187
66718.742326	0.703321	10.449219	-210.742187
66718.744326	0.773628	10.449219	-210.742187
66718.746328	0.770692	8.477610	0.531513
66719.768358	0.415698	133.984375	148.046875
66719.770360	0.696625	133.984375	148.046875
66719.772361	0.773573	133.984375	148.046875
66719.774360	0.770502	8.475518	0.538211
66720.830894	0.659049	17.187500	-210.253906
66720.832895	0.774371	17.187500	-210.253906
66720.834895	0.771576	8.487332	0.515776
66721.856920	0.356301	132.617187	146.093750
66721.858922	0.649670	132.617187	146.093750
66721.860921	0.775260	132.617187	146.093750
66721.862922	0.772734	8.500076	0.528807
66722.916920	0.760367	3.320312	-213.574219
66722.920920	0.771302	3.320312	-213.574219
66722.922923	0.771211	8.483326	0.604823
66723.944963	0.756809	134.667969	147.265625
66723.948963	0.770196	134.667969	147.265625
66723.950964	0.768731	8.456039	0.595043
66724.999487	0.495382	5.468750	-213.769531
66725.001489	0.743463	5.468750	-213.769531
66725.003490	0.773415	5.468750	-213.769531
66725.005489	0.770804	8.478842	0.516569
66726.033506	0.730770	135.253906	148.339844
66726.037505	0.770333	135.253906	148.339844
66726.039507	0.768759	8.456349	0.539789
66727.084451	0.509488	24.707031	-211.816406
66727.086453	0.519217	24.707031	-211.816406
66727.088454	0.772856	24.707031	-211.816406
66727.090453	0.770314	8.473454	0.513080
66728.120453	0.465066	132.128906	146.972656
66728.122456	0.727839	132.128906	146.972656
66728.124456	0.773211	132.128906	146.972656
66728.126456	0.770520	8.475722	0.556306
66729.170511	0.678218	12.402344	-217.871094
66729.172511	0.774449	12.402344	-217.871094
66729.174513	0.771485	8.486330	0.522935
66730.209060	0.414218	132.031250	150.292969
66730.211062	0.695821	132.031250	150.292969
66730.215061	0.771741	132.031250	150.292969
66730.217062	0.769876	8.468641	0.539869
66731.255084	0.641415	0.878906	-225.976562
66731.257086	0.774090	0.878906	-225.976562
66731.259086	0.771680	8.488475	0.529594
66732.299086	0.571020	131.738281	155.664062
66732.301088	0.768036	131.738281	155.664062
66732.303090	0.772642	131.738281	155.664062
66732.305089	0.770353	8.473887	0.524375
66733.341139	0.754149	22.070312	-228.808594
66733.343141	0.772304	22.070312	-228.808594
66733.345142	0.769880	8.468677	0.551808
66734.381652	0.225244	127.832031	158.203125
66734.383652	0.527013	127.832031	158.203125
66734.385653	0.755544	127.832031	158.203125
66734.387652	0.772066	127.832031	158.203125
66734.389653	0.769807	8.467878	0.511129
66735.431633	0.441101	22.949219	-237.304687
66735.433633	0.713756	22.949219	-237.304687
66735.435635	0.773723	22.949219	-237.304687
66735.437634	0.770847	8.479320	0.550149
66736.469599	0.680059	127.148437	165.332031
66736.473599	0.770695	127.148437	165.332031
66736.475600	0.768887	8.457758	0.482379
66737.520510	0.428272	40.722656	-239.453125
66737.522512	0.705016	40.722656	-239.453125
66737.524511	0.772714	40.722656	-239.453125
66737.526511	0.769873	8.468606	0.563061
66738.549464	0.553566	121.484375	161.816406
66738.551465	0.764064	121.484375	161.816406
66738.553466	0.772668	121.484375	161.816406
66738.555466	0.770317	8.473489	0.603284
66739.613479	0.416295	34.667969	-244.628906
66739.615480	0.697087	34.667969	-244.628906
66739.617479	0.773636	34.667969	-244.628906
66739.619478	0.770665	8.477318	0.589253
66740.629496	0.447577	122.265625	163.671875
66740.631501	0.717763	122.265625	163.671875
66740.633499	0.773525	122.265625	163.671875
66740.635501	0.770706	8.477769	0.465777
66741.706475	0.404934	59.179687	-237.207031
66741.708476	0.688848	59.179687	-237.207031
66741.710476	0.773575	59.179687	-237.207031
66741.712475	0.770556	8.476121	0.570990
66742.712476	0.733000	121.484375	157.031250
66742.714478	0.772825	121.484375	157.031250
66742.716476	0.770183	8.472009	0.483510
66743.798507	0.247476	45.996094	-234.472656
66743.800508	0.547374	45.996094	-234.472656
66743.802509	0.762501	45.996094	-234.472656
66743.804508	0.772687	45.996094	-234.472656
66743.806509	0.770311	8.473417	0.542720
66744.794564	0.359831	121.875000	149.707031
66744.796565	0.652665	121.875000	149.707031
66744.798565	0.775034	121.875000	149.707031
66744.802563	0.770425	8.474676	0.508602
66745.884587	0.433202	34.667969	-228.906250
66745.886587	0.708443	34.667969	-228.906250
66745.888588	0.773110	34.667969	-228.906250
66745.890588	0.770235	8.472585	0.526722
66746.886613	0.753939	124.804687	144.140625
66746.890613	0.769663	124.804687	144.140625
66746.892616	0.768226	8.450482	0.513670
66747.968611	0.307674	22.949219	-224.316406
66747.970614	0.604595	22.949219	-224.316406
66747.972613	0.609950	22.949219	-224.316406
66747.974614	0.772572	8.498295	0.522286
66748.974637	0.673585	132.324219	144.335937
66748.976640	0.774354	132.324219	144.335937
66748.978640	0.771408	8.485488	0.538219
66750.049147	0.272027	12.500000	-221.191406
66750.051150	0.570298	12.500000	-221.191406
66750.053149	0.767079	12.500000	-221.191406
66750.057146	0.769529	12.500000	-221.191406
66750.059148	0.768128	8.449409	0.526094
66751.067139	0.597214	131.054687	138.769531
66751.069140	0.771146	131.054687	138.769531
66751.071143	0.771727	8.488998	0.532850
66752.131138	0.455526	12.597656	-218.847656
66752.133139	0.722424	12.597656	-218.847656
66752.135139	0.773154	12.597656	-218.847656
66752.137139	0.770411	8.474517	0.517589
66753.161138	0.713874	134.960937	141.699219
66753.163139	0.773607	134.960937	141.699219
66753.165139	0.770700	8.477698	0.529752
66754.215670	0.407461	-0.976562	-222.949219
66754.217672	0.690800	-0.976562	-222.949219
66754.219671	0.773852	-0.976562	-222.949219
66754.221671	0.770879	8.479666	0.502394
66755.247733	0.387510	135.644531	143.457031
66755.249734	0.675625	135.644531	143.457031
66755.251733	0.774617	135.644531	143.457031
66755.253734	0.771666	8.488324	0.539120
66756.298273	0.671228	17.968750	-222.167969
66756.300275	0.773821	17.968750	-222.167969
66756.302276	0.770846	8.479302	0.509276
66757.336783	0.401785	133.300781	142.089844
66757.338784	0.686630	133.300781	142.089844
66757.340786	0.774459	133.300781	142.089844
66757.342784	0.771491	8.486401	0.526983
66758.384773	0.312589	11.328125	-227.246094
66758.386773	0.609341	11.328125	-227.246094
66758.388773	0.773265	11.328125	-227.246094
66758.390773	0.772875	8.501626	0.514302
66759.429729	0.773745	132.714844	143.164062
66759.431730	0.770664	8.477308	0.505857
66760.470253	0.405979	3.222656	-231.933594
66760.474254	0.775845	3.222656	-231.933594
66760.476254	0.772941	3.222656	-231.933594
66760.478255	0.770952	8.480473	0.509777
66761.510302	0.355025	133.984375	145.214844
66761.512303	0.648423	133.984375	145.214844
66761.514303	0.774811	133.984375	145.214844
66761.516303	0.772353	8.495884	0.547102
66762.555215	0.421098	4.394531	-231.738281
66762.557217	0.700618	4.394531	-231.738281
66762.559218	0.774194	4.394531	-231.738281
66762.565216	0.768097	8.449064	0.512648
66763.599220	0.349897	133.203125	143.847656
66763.601221	0.643900	133.203125	143.847656
66763.603221	0.774735	133.203125	143.847656
66763.605221	0.772356	8.495919	0.518009
66764.639236	0.293827	3.515625	-230.371094
66764.641243	0.591384	3.515625	-230.371094
66764.643241	0.770817	3.515625	-230.371094
66764.645240	0.772123	8.493349	0.539616
66765.685270	0.525979	134.765625	144.531250
66765.687272	0.755331	134.765625	144.531250
66765.689274	0.772301	134.765625	144.531250
66765.691273	0.769948	8.469430	0.549312
66766.729322	0.463486	5.664062	-229.199219
66766.731324	0.726885	5.664062	-229.199219
66766.733325	0.772915	5.664062	-229.199219
66766.735325	0.770228	8.472505	0.517848
66767.769310	0.404696	137.402344	145.214844
66767.771316	0.688718	137.402344	145.214844
66767.773315	0.774192	137.402344	145.214844
66767.775317	0.773955	8.513502	0.521393
66768.818215	0.452492	14.843750	-225.390625
66768.820218	0.720499	14.843750	-225.390625
66768.822217	0.773098	14.843750	-225.390625
66768.824218	0.770321	8.473533	0.511177
66769.854768	0.491976	134.277344	138.964844
66769.856769	0.741580	134.277344	138.964844
66769.858770	0.772956	134.277344	138.964844
66769.860769	0.770341	8.473755	0.536480
66770.906821	0.401450	6.640625	-225.390625
66770.908824	0.686333	6.640625	-225.390625
66770.910828	0.692025	6.640625	-225.390625
66770.912831	0.770892	8.479808	0.502331
66771.938851	0.377023	136.914062	140.429687
66771.940854	0.667189	136.914062	140.429687
66771.942854	0.774660	136.914062	140.429687
66771.944852	0.771770	8.489468	0.519257
66772.995792	0.402365	9.277344	-224.414062
66772.997794	0.686924	9.277344	-224.414062
66772.999792	0.773611	9.277344	-224.414062
66773.001792	0.770587	8.476458	0.519248
66774.023819	0.392468	133.300781	136.230469
66774.025821	0.679443	133.300781	136.230469
66774.027819	0.774604	133.300781	136.230469
66774.029819	0.771571	8.487279	0.518824
66775.087808	0.243555	9.570312	-226.367187
66775.089810	0.543684	9.570312	-226.367187
66775.091811	0.760781	9.570312	-226.367187
66775.093811	0.772074	9.570312	-226.367187
66775.095810	0.769763	8.467392	0.517441
66776.105793	0.570184	130.078125	135.937500
66776.107795	0.767094	130.078125	135.937500
66776.109795	0.771727	130.078125	135.937500
66776.111795	0.769599	8.465592	0.519248
66777.179830	0.689437	17.285156	-229.785156
66777.181832	0.774107	17.285156	-229.785156
66777.183831	0.771224	8.483467	0.524921
66778.184677	0.287959	130.468750	141.406250
66778.186704	0.585494	130.468750	141.406250
66778.188704	0.770095	130.468750	141.406250
66778.190704	0.771765	130.468750	141.406250
66778.192706	0.769594	8.465539	0.523544
66779.270749	0.383722	26.367187	-235.449219
66779.272750	0.672374	26.367187	-235.449219
66779.274750	0.774005	26.367187	-235.449219
66779.276749	0.771127	8.482395	0.522655
66780.270768	0.471621	124.902344	142.578125
66780.272771	0.731047	124.902344	142.578125
66780.276767	0.769822	124.902344	142.578125
66780.278770	0.768188	8.450066	0.494790
66781.360791	0.543079	41.699219	-240.625000
66781.362794	0.760864	41.699219	-240.625000
66781.364793	0.772246	41.699219	-240.625000
66781.366795	0.769938	8.469315	0.624986
66782.356776	0.639174	127.148437	151.953125
66782.358777	0.773835	127.148437	151.953125
66782.362777	0.769572	8.465291	0.501729
66783.444753	0.411142	33.593750	-250.976562
66783.448754	0.773463	33.593750	-250.976562
66783.450755	0.770474	33.593750	-250.976562
66783.452754	0.768745	8.456190	0.541598
66784.444722	0.490290	125.683594	155.761719
66784.446725	0.740588	125.683594	155.761719
66784.448724	0.772399	125.683594	155.761719
66784.452722	0.768256	8.450819	0.482332
66785.529659	0.417485	45.898437	-251.953125
66785.531661	0.697827	45.898437	-251.953125
66785.533662	0.773741	45.898437	-251.953125
66785.535660	0.770792	8.478718	0.538809
66786.538171	0.548825	125.097656	156.835937
66786.540173	0.762145	125.097656	156.835937
66786.542176	0.771667	125.097656	156.835937
66786.544175	0.769442	8.463864	0.472109
66787.610687	0.454899	42.578125	-253.710937
66787.612688	0.721586	42.578125	-253.710937
66787.614689	0.772225	42.578125	-253.710937
66787.616688	0.769520	8.464715	0.538641
66788.629607	0.307914	124.218750	153.320312
66788.631614	0.604491	124.218750	153.320312
66788.633621	0.771854	124.218750	153.320312
66788.635625	0.771664	8.488306	0.477835
66789.691669	0.487409	18.847656	-257.812500
66789.693671	0.738757	18.847656	-257.812500
66789.695670	0.771846	18.847656	-257.812500
66789.697671	0.769389	8.463280	0.536025
66790.719694	0.477333	127.050781	153.027344
66790.721697	0.733771	127.050781	153.027344
66790.723697	0.771982	127.050781	153.027344
66790.725695	0.769415	8.463563	0.491855
66791.773710	0.669276	27.441406	-251.171875
66791.775713	0.773863	27.441406	-251.171875
66791.777713	0.770918	8.480100	0.528438
66792.812280	0.408452	129.394531	150.488281
66792.814282	0.691178	129.394531	150.488281
66792.816297	0.773176	129.394531	150.488281
66792.818297	0.770197	8.472168	0.479208
66793.856317	0.341723	8.984375	-250.683594
66793.858319	0.636197	8.984375	-250.683594
66793.860319	0.772690	8.984375	-250.683594
66793.862320	0.770502	8.475527	0.525749
66794.900313	2.067004	131.640625	147.070312
66794.902315	0.564696	131.640625	147.070312
66794.904314	0.765847	131.640625	147.070312
66794.906317	0.771708	131.640625	147.070312
66794.908320	0.769507	8.464573	0.489889
66795.944352	0.751204	-2.148437	-248.437500
66795.946352	0.772323	-2.148437	-248.437500
66795.948354	0.769847	8.468322	0.513667
66796.986805	0.511585	133.300781	144.433594
66796.988806	0.749625	133.300781	144.433594
66796.990806	0.772014	133.300781	144.433594
66796.992807	0.769612	8.465734	0.498199
66798.026820	0.457300	-0.195312	-244.433594
66798.028823	0.722896	-0.195312	-244.433594
66798.030822	0.772090	-0.195312	-244.433594
66798.032824	0.769488	8.464370	0.527074
66799.074820	0.371512	134.570312	141.699219
66799.076821	0.662361	134.570312	141.699219
66799.078821	0.774300	134.570312	141.699219
66799.080823	0.771498	8.486481	0.510325
66800.114830	0.314732	-2.441406	-242.187500
66800.116832	0.611159	-2.441406	-242.187500
66800.118832	0.772144	-2.441406	-242.187500
66800.120832	0.771344	8.484779	0.523393
66801.160868	0.546179	134.863281	139.453125
66801.162871	0.761220	134.863281	139.453125
66801.166870	0.769292	134.863281	139.453125
66801.168870	0.767770	8.445466	0.615641
66802.204892	0.479875	-1.464844	-240.625000
66802.206893	0.735608	-1.464844	-240.625000
66802.208895	0.772899	-1.464844	-240.625000
66802.210893	0.770273	8.473001	0.493517
66803.244911	0.427011	133.496094	136.523437
66803.246912	0.704434	133.496094	136.523437
66803.248914	0.773491	133.496094	136.523437
66803.250914	0.770541	8.475952	0.518580
66804.288952	0.360676	0.976562	-240.625000
66804.290952	0.653203	0.976562	-240.625000
66804.292953	0.774420	0.976562	-240.625000
66804.294952	0.771859	8.490452	0.510949
66805.333045	0.300613	133.886719	136.132812
66805.335045	0.597725	133.886719	136.132812
66805.337046	0.771168	133.886719	136.132812
66805.339046	0.771670	8.488369	0.516910
66806.375049	0.542736	20.410156	-236.621094
66806.377052	0.760308	20.410156	-236.621094
66806.379052	0.771809	20.410156	-236.621094
66806.381051	0.769532	8.464857	0.522514
66807.421040	0.699907	136.914062	139.550781
66807.423042	0.773292	136.914062	139.550781
66807.425044	0.770491	8.475403	0.512955
66808.463598	0.481857	2.734375	-241.894531
66808.465600	0.736500	2.734375	-241.894531
66808.467600	0.772604	2.734375	-241.894531
66808.469600	0.770055	8.470600	0.504320
66809.507604	0.413239	134.375000	138.476562
66809.509604	0.694807	134.375000	138.476562
66809.511603	0.773678	134.375000	138.476562
66809.513604	0.770662	8.477283	0.500154
66810.549635	0.652869	-3.906250	-246.093750
66810.551634	0.774243	-3.906250	-246.093750
66810.553637	0.771652	8.488173	0.512213
66811.592575	0.427517	133.691406	138.867187
66811.596575	0.773529	133.691406	138.867187
66811.598577	0.770510	133.691406	138.867187
66811.600577	0.768848	8.457333	0.522085
66812.636592	0.357693	17.480469	-245.605469
66812.638593	0.650753	17.480469	-245.605469
66812.640592	0.774287	17.480469	-245.605469
66812.642593	0.771701	8.488714	0.493116
66813.680569	0.280038	133.496094	142.089844
66813.682571	0.578025	133.496094	142.089844
66813.686568	0.772689	133.496094	142.089844
66813.688570	0.770449	133.496094	142.089844
66813.690570	0.768978	8.458759	0.503203
66814.722582	0.524011	-4.003906	-252.636719
66814.724584	0.754554	-4.003906	-252.636719
66814.726584	0.772204	-4.003906	-252.636719
66814.728584	0.769835	8.468189	0.507700
66815.770616	0.445395	130.859375	142.480469
66815.772619	0.716443	130.859375	142.480469
66815.774620	0.773682	130.859375	142.480469
66815.778617	0.769136	8.460497	0.476828
66816.810647	0.392200	4.785156	-256.640625
66816.812648	0.679120	4.785156	-256.640625
66816.814649	0.773736	4.785156	-256.640625
66816.816647	0.770776	8.478531	0.527130
66817.854653	0.321367	131.738281	146.386719
66817.856656	0.617537	131.738281	146.386719
66817.858655	0.773157	131.738281	146.386719
66817.860655	0.772068	8.492746	0.489611
66818.894664	0.263932	14.355469	-259.765625
66818.896664	0.562585	14.355469	-259.765625
66818.898663	0.765624	14.355469	-259.765625
66818.900664	0.766991	14.355469	-259.765625
66818.902663	0.769697	8.466664	0.573643
66819.936677	0.508096	126.660156	145.312500
66819.938678	0.748194	126.660156	145.312500
66819.940679	0.771818	126.660156	145.312500
66819.942680	0.769470	8.464174	0.470040
66820.988642	0.404258	31.152344	-259.960937
66820.990646	0.688603	31.152344	-259.960937
66820.992645	0.774599	31.152344	-259.960937
66820.994644	0.771620	8.487819	0.527102
66822.023186	0.721769	123.437500	144.140625
66822.025188	0.773369	123.437500	144.140625
66822.027191	0.770567	8.476236	0.447332
66823.081679	0.401743	23.632812	-264.941406
66823.083679	0.686363	23.632812	-264.941406
66823.085681	0.773644	23.632812	-264.941406
66823.087681	0.770665	8.477318	0.514250
66824.101678	0.415373	123.339844	144.824219
66824.103681	0.696209	123.339844	144.824219
66824.105681	0.773251	123.339844	144.824219
66824.107680	0.770319	8.473506	0.465580
66825.171699	0.556936	46.289062	-259.277344
66825.173702	0.764177	46.289062	-259.277344
66825.175705	0.771659	46.289062	-259.277344
66825.177703	0.769448	8.463926	0.679418
66826.182621	0.440938	123.535156	143.261719
66826.184622	0.713353	123.535156	143.261719
66826.186624	0.773066	123.535156	143.261719
66826.188623	0.770212	8.472328	0.468400
66827.264678	0.546026	31.738281	-260.839844
66827.266680	0.761802	31.738281	-260.839844
66827.268680	0.772360	31.738281	-260.839844
66827.270680	0.769999	8.469988	0.625690
66828.262714	0.338879	124.023437	140.332031
66828.264714	0.633917	124.023437	140.332031
66828.266715	0.774686	124.023437	140.332031
66828.268714	0.772820	8.501024	0.503676
66829.348734	0.428753	50.000000	-249.804687
66829.350736	0.705739	50.000000	-249.804687
66829.352737	0.709399	50.000000	-249.804687
66829.354736	0.770898	8.479878	0.514143
66830.352755	2.531884	126.367187	136.621094
66830.354757	0.745389	126.367187	136.621094
66830.356757	0.772828	126.367187	136.621094
66830.358758	0.770327	8.473596	0.480430
66831.436770	0.287870	26.953125	-249.511719
66831.438803	0.585483	26.953125	-249.511719
66831.440806	0.770381	26.953125	-249.511719
66831.442806	0.771870	26.953125	-249.511719
66831.446805	0.768223	8.450456	0.512763
66832.440811	0.367896	128.027344	131.738281
66832.442810	0.659310	128.027344	131.738281
66832.444811	0.774072	128.027344	131.738281
66832.446810	0.771344	8.484779	0.498599
66833.522856	0.472497	18.847656	-245.703125
66833.524858	0.732010	18.847656	-245.703125
66833.526858	0.773408	18.847656	-245.703125
66833.528858	0.770683	8.477512	0.500020
66834.530878	0.530619	131.542969	129.492187
66834.532880	0.756911	131.542969	129.492187
66834.534880	0.772268	131.542969	129.492187
66834.536881	0.769900	8.468899	0.550131
66835.608909	0.644911	27.441406	-238.964844
66835.610911	0.773422	27.441406	-238.964844
66835.612910	0.770998	8.480977	0.985229
66836.620937	0.685283	134.082031	128.027344
66836.622942	0.774942	134.082031	128.027344
66836.624941	0.771975	8.491728	0.512473
66837.687483	1.559800	18.164062	-238.183594
66837.689486	0.617027	18.164062	-238.183594
66837.691485	0.772634	18.164062	-238.183594
66837.693485	0.771511	8.486623	0.508449
66838.707514	0.339161	138.378906	129.589844
66838.709516	0.634162	138.378906	129.589844
66838.711515	0.774452	138.378906	129.589844
66838.713515	0.772523	8.497753	0.533755
66839.775541	0.744153	13.085937	-237.792969
66839.777544	0.772340	13.085937	-237.792969
66839.779543	0.769886	8.468747	0.484030
66840.796070	0.276938	135.644531	125.585937
66840.798074	0.574892	135.644531	125.585937
66840.800073	0.768568	135.644531	125.585937
66840.802072	0.772443	135.644531	125.585937
66840.804072	0.770150	8.471645	0.526032
66841.858062	0.926879	-2.343750	-242.089844
66841.860063	0.718113	-2.343750	-242.089844
66841.862064	0.773073	-2.343750	-242.089844
66841.864065	0.770295	8.473249	0.487719
66842.886083	0.436464	134.667969	124.707031
66842.888087	0.710362	134.667969	124.707031
66842.890086	0.772785	134.667969	124.707031
66842.892086	0.769935	8.469288	0.541378
66843.944130	0.622803	-4.687500	-243.261719
66843.946132	0.773363	-4.687500	-243.261719
66843.948131	0.771813	8.489946	0.484113
66844.976603	0.662037	138.183594	127.050781
66844.978604	0.773708	138.183594	127.050781
66844.980605	0.770897	8.479869	0.504927
66846.029128	0.643395	-0.585937	-242.968750
66846.031131	0.773323	-0.585937	-242.968750
66846.033129	0.770898	8.479878	0.501384
66847.059147	0.322568	139.160156	127.929687
66847.061149	0.618705	139.160156	127.929687
66847.063151	0.773737	139.160156	127.929687
66847.065149	0.772521	8.497736	0.541277
66848.118093	0.643531	-6.054687	-244.335937
66848.120094	0.773516	-6.054687	-244.335937
66848.122096	0.771135	8.482484	0.474442
66849.150569	0.678423	138.867187	127.246094
66849.152571	0.774354	138.867187	127.246094
66849.154570	0.771440	8.485843	0.496560
66850.203129	0.892382	-2.441406	-244.042969
66850.205131	0.774107	-2.441406	-244.042969
66850.207130	0.771235	8.483582	0.490849
66851.235583	0.696264	137.988281	125.878906
66851.237583	0.773132	137.988281	125.878906
66851.239583	0.770220	8.472417	0.503976
66852.292126	0.671404	-2.929687	-244.531250
66852.294128	0.775016	-2.929687	-244.531250
66852.296127	0.772231	8.494537	0.475970
66853.318602	0.438706	136.914062	125.097656
66853.322602	0.773449	136.914062	125.097656
66853.324605	0.770489	136.914062	125.097656
66853.326603	0.768877	8.457643	0.501926
66854.378645	0.316053	4.101562	-244.042969
66854.380646	0.612455	4.101562	-244.042969
66854.384645	0.771323	4.101562	-244.042969
66854.386646	0.769310	8.462411	0.488879
66855.402642	0.314227	135.156250	123.828125
66855.404644	0.610743	135.156250	123.828125
66855.406644	0.772082	135.156250	123.828125
66855.408644	0.771405	8.485453	0.507714
66856.470682	0.733928	18.066406	-242.187500
66856.472686	0.772534	18.066406	-242.187500
66856.474686	0.769925	8.469173	0.485844
66857.483242	0.286862	132.910156	123.730469
66857.485247	0.584434	132.910156	123.730469
66857.487243	0.771482	132.910156	123.730469
66857.489245	0.774203	132.910156	123.730469
66857.491243	0.771948	8.491426	0.534839
66858.559218	0.694917	12.304687	-247.656250
66858.561223	0.773615	12.304687	-247.656250
66858.563220	0.770707	8.477777	0.507282
66859.569242	0.460220	133.984375	127.832031
66859.571243	0.724770	133.984375	127.832031
66859.573245	0.772530	133.984375	127.832031
66859.575243	0.769827	8.468101	0.497534
66860.649270	0.767554	16.015625	-251.855469
66860.651272	0.771340	16.015625	-251.855469
66860.653274	0.769242	8.461666	0.724361
66861.657727	0.774050	133.398437	131.250000
66861.659729	0.771030	133.398437	131.250000
66861.661733	0.769249	8.461738	0.486044
66862.738269	0.769136	35.449219	-252.539062
66862.740269	0.771967	35.449219	-252.539062
66862.742270	0.769750	8.467250	0.744214
66863.738816	0.438016	128.710937	131.933594
66863.740817	0.711592	128.710937	131.933594
66863.742818	0.773091	128.710937	131.933594
66863.744817	0.770209	8.472301	0.481344
66864.820332	2.177917	31.152344	-261.914062
66864.827583	0.773865	31.152344	-261.914062
66864.829585	0.771971	31.152344	-261.914062
66864.831585	0.769944	8.469385	0.523664
66865.823593	1.695134	125.585937	133.789062
66865.825594	0.703785	125.585937	133.789062
66865.827594	0.773874	125.585937	133.789062
66865.829593	0.770890	8.479790	0.472583
66866.909617	0.510814	39.062500	-266.113281
66866.911617	0.750810	39.062500	-266.113281
66866.913618	0.774622	39.062500	-266.113281
66866.915620	0.772067	8.492738	0.506218
66867.911604	0.281344	124.609375	136.523437
66867.915604	0.769221	124.609375	136.523437
66867.917607	0.772169	124.609375	136.523437
66867.919606	0.769979	8.469767	0.474306
66868.993606	0.379322	31.542969	-273.925781
66868.995609	0.669041	31.542969	-273.925781
66868.997608	0.774899	31.542969	-273.925781
66868.999610	0.772081	8.492888	0.525433
66870.001671	0.449339	125.292969	139.550781
66870.003674	0.718793	125.292969	139.550781
66870.005673	0.773417	125.292969	139.550781
66870.007673	0.770576	8.476334	0.469348
66871.081733	0.766860	28.613281	-277.148437
66871.083737	0.772111	28.613281	-277.148437
66871.085735	0.769926	8.469181	0.687818
66872.093754	0.302649	127.343750	142.675781
66872.095757	0.599761	127.343750	142.675781
66872.097755	0.770793	127.343750	142.675781
66872.099756	0.771107	8.482174	0.449411
66873.160286	0.535653	30.566406	-275.781250
66873.162289	0.758513	30.566406	-275.781250
66873.164289	0.772159	30.566406	-275.781250
66873.166290	0.769832	8.468153	0.587146
66874.184304	0.539489	126.269531	139.453125
66874.186306	0.759753	126.269531	139.453125
66874.188305	0.772336	126.269531	139.453125
66874.190305	0.770056	8.470617	0.506541
66875.242338	1.385222	15.820312	-278.417969
66875.244339	0.773276	15.820312	-278.417969
66875.246341	0.770382	8.474207	0.524026
